Tempo(s)    P0(KPa) P0+Coluna(KPa)  P1(KPa) P1+Coluna(KPa)
0.003	-2.22	-2.22	-2.22	-2.22
0.030	-2.22	-2.22	-2.22	-2.22
0.060	12.77	12.77	-2.22	-2.22
0.090	12.77	12.77	7.64	7.64
0.120	12.77	12.77	7.64	7.64
0.149	12.77	12.77	7.64	7.64
0.179	12.77	12.77	7.52	7.52
0.209	12.77	12.77	7.52	7.52
0.239	12.77	12.77	7.52	7.52
0.269	12.77	12.77	7.64	7.64
0.298	12.77	12.77	7.64	7.64
0.328	12.78	12.78	7.64	7.64
0.358	12.78	12.78	7.53	7.53
0.388	12.78	12.78	7.53	7.53
0.417	12.78	12.78	7.53	7.53
0.447	12.78	12.78	7.60	7.60
0.477	12.78	12.78	7.60	7.60
0.507	12.78	12.78	7.60	7.60
0.536	12.78	12.78	7.60	7.60
0.566	12.78	12.78	7.60	7.60
0.596	12.78	12.78	7.60	7.60
0.626	-0.00	12.78	-0.08	7.52
0.655	-0.00	12.78	-0.08	7.52
0.685	-0.00	12.77	-0.08	7.52
0.715	-0.00	12.77	0.04	7.63
0.744	-0.00	12.77	0.04	7.63
0.774	-0.00	12.78	0.04	7.63
0.804	-0.00	12.78	-0.07	7.53
0.834	-0.00	12.78	-0.07	7.53
0.864	-0.00	12.77	-0.07	7.53
0.893	-0.00	12.77	0.01	7.61
0.923	-0.00	12.77	0.01	7.61
0.953	-0.00	12.77	0.01	7.61
0.983	-0.00	12.77	-0.01	7.58
1.012	-0.00	12.77	-0.01	7.58
1.042	-0.00	12.77	-0.01	7.58
1.072	-0.00	12.77	-0.07	7.53
1.102	-0.00	12.77	-0.07	7.53
1.131	-0.00	12.77	-0.07	7.53
1.161	-0.00	12.77	0.04	7.64
1.191	-0.00	12.77	0.04	7.64
1.221	-0.00	12.77	0.04	7.64
1.251	-0.00	12.77	-0.07	7.53
1.280	-0.00	12.77	-0.07	7.53
1.310	-0.00	12.77	-0.07	7.53
1.340	-0.00	12.77	0.01	7.61
1.370	-0.00	12.77	0.01	7.61
1.399	-0.00	12.77	0.01	7.61
1.429	-0.00	12.77	-0.02	7.58
1.459	-0.00	12.77	-0.02	7.58
1.489	-0.00	12.78	-0.02	7.58
1.519	-0.00	12.78	-0.07	7.53
1.548	-0.00	12.78	-0.07	7.53
1.578	-0.00	12.77	-0.07	7.53
1.608	-0.00	12.77	0.04	7.64
1.638	-0.00	12.77	0.04	7.64
1.667	-0.00	12.78	0.04	7.64
1.697	-0.00	12.78	-0.08	7.52
1.727	-0.00	12.78	-0.08	7.52
1.757	-0.00	12.77	-0.08	7.52
1.786	-0.00	12.77	0.02	7.62
1.816	-0.00	12.77	0.02	7.62
1.846	-0.00	12.77	0.02	7.62
1.876	-0.00	12.77	-0.03	7.57
1.905	-0.00	12.77	-0.03	7.57
1.935	-0.00	12.77	-0.03	7.57
1.965	-0.00	12.77	-0.07	7.53
1.995	-0.00	12.77	-0.07	7.53
2.025	-0.00	12.77	-0.07	7.53
2.054	-0.00	12.77	0.04	7.64
2.084	-0.00	12.77	0.04	7.64
2.114	-0.00	12.77	0.04	7.64
2.144	-0.00	12.77	-0.08	7.52
2.173	-0.00	12.77	-0.08	7.52
2.203	-0.00	12.77	-0.08	7.52
2.233	-0.00	12.77	0.01	7.61
2.263	-0.00	12.77	0.01	7.61
2.293	-0.00	12.77	0.01	7.61
2.322	-0.00	12.77	-0.03	7.57
2.352	-0.00	12.77	-0.03	7.57
2.382	-0.00	12.77	-0.03	7.57
2.412	-0.00	12.77	-0.06	7.54
2.441	-0.00	12.77	-0.06	7.54
2.471	-0.00	12.77	-0.06	7.54
2.501	-0.00	12.77	0.04	7.64
2.531	-0.00	12.77	0.04	7.64
2.561	-0.00	12.77	0.04	7.64
2.590	-0.00	12.77	-0.08	7.52
2.620	-0.00	12.77	-0.08	7.52
2.650	-0.00	12.77	-0.08	7.52
2.680	-0.00	12.77	0.02	7.62
2.709	-0.00	12.77	0.02	7.62
2.739	-0.00	12.77	0.02	7.62
2.769	-0.00	12.77	-0.04	7.56
2.799	-0.00	12.77	-0.04	7.56
2.829	-0.00	12.77	-0.04	7.56
2.858	-0.00	12.77	-0.05	7.55
2.888	-0.00	12.77	-0.05	7.55
2.918	-0.00	12.77	-0.05	7.55
2.948	-0.00	12.77	0.04	7.64
2.977	-0.00	12.77	0.04	7.64
3.007	-0.00	12.78	0.04	7.64
3.037	-0.00	12.78	-0.08	7.51
3.067	-0.00	12.78	-0.08	7.51
3.097	-0.01	12.77	-0.08	7.51
3.126	-0.01	12.77	0.02	7.62
3.156	-0.01	12.77	0.02	7.62
3.186	-0.00	12.77	0.02	7.62
3.216	-0.00	12.77	-0.04	7.55
3.245	-0.00	12.77	-0.04	7.55
3.275	-0.00	12.77	-0.04	7.55
3.305	-0.00	12.77	-0.04	7.55
3.335	-0.00	12.77	-0.04	7.55
3.364	-0.00	12.77	-0.04	7.55
3.394	-0.00	12.77	0.04	7.64
3.424	-0.00	12.77	0.04	7.64
3.454	-0.00	12.77	0.04	7.64
3.484	-0.00	12.77	-0.08	7.52
3.513	-0.00	12.77	-0.08	7.52
3.543	-0.01	12.77	-0.08	7.52
3.573	-0.01	12.77	0.03	7.63
3.603	-0.01	12.77	0.03	7.63
3.632	1.30	14.07	0.03	7.63
3.662	1.30	14.07	-0.04	7.55
3.692	1.30	14.07	-0.04	7.55
3.722	25.55	38.33	-0.04	7.55
3.752	25.55	38.33	-0.03	7.57
3.781	25.55	38.33	-0.03	7.57
3.811	25.64	38.42	-0.03	7.57
3.841	25.64	38.42	0.04	7.64
3.871	25.64	38.42	0.04	7.64
3.900	25.64	38.42	0.04	7.64
3.930	25.64	38.42	-0.07	7.52
3.960	25.64	38.42	-0.07	7.52
3.990	26.91	39.69	-0.07	7.52
4.019	26.91	39.69	0.03	7.63
4.049	26.91	39.69	0.03	7.63
4.079	27.00	39.78	0.03	7.63
4.109	27.00	39.78	-0.05	7.55
4.139	27.00	39.78	-0.05	7.55
4.168	27.45	40.23	-0.05	7.55
4.198	27.45	40.23	-0.02	7.58
4.228	27.45	40.23	-0.02	7.58
4.258	28.01	40.79	-0.02	7.58
4.287	28.01	40.79	0.04	7.64
4.317	28.01	40.79	0.04	7.64
4.347	27.90	40.67	0.04	7.64
4.377	27.90	40.67	-0.08	7.52
4.407	27.90	40.67	-0.08	7.52
4.436	28.16	40.94	-0.08	7.52
4.466	28.16	40.94	0.03	7.63
4.496	28.16	40.94	0.03	7.63
4.526	28.45	41.23	0.03	7.63
4.555	28.45	41.23	-0.05	7.55
4.585	28.45	41.23	-0.05	7.55
4.615	28.57	41.34	-0.05	7.55
4.645	28.57	41.34	-0.01	7.59
4.674	28.57	41.34	-0.01	7.59
4.704	28.93	41.70	-0.01	7.59
4.734	28.93	41.70	0.04	7.64
4.764	28.93	41.70	0.04	7.64
4.794	28.95	41.72	0.04	7.64
4.823	28.95	41.72	-0.08	7.52
4.853	28.95	41.72	-0.08	7.52
4.883	29.10	41.88	-0.08	7.52
4.913	29.10	41.88	0.04	7.63
4.942	29.10	41.88	0.04	7.63
4.972	29.19	41.97	0.04	7.63
5.002	29.19	41.97	-0.05	7.54
5.032	29.19	41.97	-0.05	7.54
5.061	9.17	21.95	-0.05	7.54
5.091	9.17	21.95	-0.01	7.58
5.121	9.17	21.95	-0.01	7.58
5.151	3.62	16.39	-0.01	7.58
5.181	3.62	16.39	0.03	7.62
5.210	3.62	16.39	0.03	7.62
5.240	21.46	34.24	0.03	7.62
5.270	21.46	34.24	-0.08	7.52
5.300	21.46	34.24	-0.08	7.52
5.329	13.96	26.74	-0.08	7.52
5.359	13.96	26.74	0.04	7.64
5.389	13.96	26.74	0.04	7.64
5.419	20.88	33.65	0.04	7.64
5.448	20.88	33.65	-0.05	7.54
5.478	20.88	33.65	-0.05	7.54
5.508	26.00	38.78	-0.05	7.54
5.538	26.00	38.78	-0.00	7.60
5.568	26.00	38.78	-0.00	7.60
5.597	28.03	40.80	-0.00	7.60
5.627	28.03	40.80	0.02	7.62
5.657	28.03	40.80	0.02	7.62
5.687	27.17	39.94	0.02	7.62
5.716	27.17	39.94	-0.08	7.52
5.746	27.17	39.94	-0.08	7.52
5.776	26.35	39.13	-0.08	7.52
5.806	26.35	39.13	0.04	7.64
5.835	26.35	39.13	0.04	7.64
5.865	26.27	39.05	0.04	7.64
5.895	26.27	39.05	-0.05	7.54
5.925	26.27	39.05	-0.05	7.54
5.954	26.43	39.20	-0.05	7.54
5.984	26.43	39.20	0.00	7.60
6.014	26.43	39.20	0.00	7.60
6.044	26.26	39.04	0.00	7.60
6.074	26.26	39.04	0.02	7.61
6.103	26.26	39.04	0.02	7.61
6.133	26.16	38.94	0.02	7.61
6.163	26.16	38.94	-0.08	7.52
6.193	26.16	38.94	-0.08	7.52
6.222	25.97	38.75	-0.08	7.52
6.252	25.97	38.75	0.04	7.64
6.282	25.97	38.75	0.04	7.64
6.312	25.69	38.47	0.04	7.64
6.341	25.69	38.47	-0.06	7.54
6.371	25.69	38.47	-0.06	7.54
6.401	25.72	38.50	-0.06	7.54
6.431	25.72	38.50	0.00	7.60
6.461	25.72	38.50	0.00	7.60
6.490	25.40	38.18	0.00	7.60
6.520	25.40	38.18	0.01	7.61
6.550	25.40	38.18	0.01	7.61
6.580	25.51	38.28	0.01	7.61
6.609	25.51	38.28	-0.08	7.52
6.639	25.51	38.28	-0.08	7.52
6.669	25.54	38.31	-0.08	7.52
6.699	25.54	38.31	0.05	7.64
6.728	25.54	38.31	0.05	7.64
6.758	25.47	38.24	0.05	7.64
6.788	25.47	38.24	-0.06	7.54
6.818	25.47	38.24	-0.06	7.54
6.848	25.38	38.16	-0.06	7.54
6.877	25.38	38.16	0.01	7.60
6.907	25.38	38.16	0.01	7.60
6.937	25.55	38.33	0.01	7.60
6.967	25.55	38.33	0.01	7.61
6.996	25.55	38.33	0.01	7.61
7.026	25.52	38.29	0.01	7.61
7.056	25.52	38.29	-0.08	7.52
7.086	25.52	38.29	-0.08	7.52
7.116	26.40	39.17	-0.08	7.52
7.145	26.40	39.17	0.04	7.64
7.175	26.40	39.17	0.04	7.64
7.205	26.82	39.59	0.04	7.64
7.235	26.82	39.59	-0.06	7.54
7.264	26.82	39.59	-0.06	7.54
7.294	26.97	39.74	-0.06	7.54
7.324	26.97	39.74	0.01	7.61
7.354	26.97	39.74	0.01	7.61
7.383	27.05	39.83	0.01	7.61
7.413	27.05	39.83	0.00	7.60
7.443	27.05	39.83	0.00	7.60
7.473	27.26	40.04	0.00	7.60
7.503	27.26	40.04	-0.07	7.52
7.532	27.26	40.04	-0.07	7.52
7.562	27.61	40.38	-0.07	7.52
7.592	27.61	40.38	0.05	7.64
7.622	27.61	40.38	0.05	7.64
7.651	27.73	40.50	0.05	7.64
7.681	27.73	40.50	-0.06	7.53
7.711	27.73	40.50	-0.06	7.53
7.741	28.30	41.07	-0.06	7.53
7.770	28.30	41.07	0.01	7.61
7.800	28.30	41.07	0.01	7.61
7.830	28.45	41.23	0.01	7.61
7.860	28.45	41.23	0.00	7.60
7.890	28.45	41.23	0.00	7.60
7.919	28.24	41.02	0.00	7.60
7.949	28.24	41.02	-0.08	7.52
7.979	28.24	41.02	-0.08	7.52
8.009	28.61	41.39	-0.08	7.52
8.038	28.61	41.39	0.05	7.64
8.068	28.61	41.39	0.05	7.64
8.098	28.68	41.46	0.05	7.64
8.128	28.68	41.46	-0.06	7.53
8.157	28.68	41.46	-0.06	7.53
8.187	29.29	42.07	-0.06	7.53
8.217	29.29	42.07	0.01	7.61
8.247	29.29	42.07	0.01	7.61
8.277	29.22	42.00	0.01	7.61
8.306	29.22	42.00	-0.00	7.59
8.336	29.22	42.00	-0.00	7.59
8.366	28.89	41.67	-0.00	7.59
8.396	28.89	41.67	-0.08	7.52
8.425	28.89	41.67	-0.08	7.52
8.455	30.15	42.93	-0.08	7.52
8.485	30.15	42.93	0.04	7.64
8.515	30.15	42.93	0.04	7.64
8.545	29.62	42.40	0.04	7.64
8.574	29.62	42.40	-0.06	7.53
8.604	29.62	42.40	-0.06	7.53
8.634	29.80	42.58	-0.06	7.53
8.664	29.80	42.58	0.01	7.61
8.693	29.80	42.58	0.01	7.61
8.723	29.61	42.38	0.01	7.61
8.753	29.61	42.38	-0.00	7.59
8.783	29.61	42.38	-0.00	7.59
8.812	29.28	42.05	-0.00	7.59
8.842	29.28	42.05	-0.07	7.52
8.872	29.28	42.05	-0.07	7.52
8.902	29.28	42.05	-0.07	7.52
8.932	29.28	42.05	0.05	7.64
8.961	29.28	42.05	0.05	7.64
8.991	29.22	42.00	0.05	7.64
9.021	29.22	42.00	-0.06	7.53
9.051	29.22	42.00	-0.06	7.53
9.080	29.14	41.91	-0.06	7.53
9.110	29.14	41.91	0.01	7.61
9.140	29.14	41.91	0.01	7.61
9.170	28.87	41.64	0.01	7.61
9.199	28.87	41.64	-0.01	7.59
9.229	28.87	41.64	-0.01	7.59
9.259	28.78	41.55	-0.01	7.59
9.289	28.78	41.55	-0.07	7.52
9.319	28.78	41.55	-0.07	7.52
9.348	28.60	41.38	-0.07	7.52
9.378	28.60	41.38	0.04	7.64
9.408	28.60	41.38	0.04	7.64
9.438	28.34	41.12	0.04	7.64
9.467	28.34	41.12	-0.06	7.53
9.497	28.34	41.12	-0.06	7.53
9.527	27.97	40.74	-0.06	7.53
9.557	27.97	40.74	0.01	7.61
9.586	27.97	40.74	0.01	7.61
9.616	27.87	40.65	0.01	7.61
9.646	27.87	40.65	-0.01	7.59
9.676	27.87	40.65	-0.01	7.59
9.706	27.82	40.60	-0.01	7.59
9.735	27.82	40.60	-0.07	7.52
9.765	27.82	40.60	-0.07	7.52
9.795	27.72	40.50	-0.07	7.52
9.825	27.72	40.50	0.04	7.64
9.854	27.72	40.50	0.04	7.64
9.884	27.82	40.60	0.04	7.64
9.914	27.82	40.60	-0.06	7.53
9.944	27.82	40.60	-0.06	7.53
9.973	27.64	40.41	-0.06	7.53
10.003	27.64	40.41	0.01	7.61
10.033	27.64	40.41	0.01	7.61
10.063	27.56	40.33	0.01	7.61
10.093	27.56	40.33	-0.01	7.59
10.122	27.56	40.33	-0.01	7.59
10.152	27.59	40.37	-0.01	7.59
10.182	27.59	40.37	-0.07	7.52
10.212	27.59	40.37	-0.07	7.52
10.241	27.53	40.30	-0.07	7.52
10.271	27.53	40.30	0.04	7.64
10.301	27.53	40.30	0.04	7.64
10.331	27.60	40.38	0.04	7.64
10.360	27.60	40.38	-0.06	7.53
10.390	27.60	40.38	-0.06	7.53
10.420	27.54	40.31	-0.06	7.53
10.450	27.54	40.31	0.01	7.61
10.479	27.54	40.31	0.01	7.61
10.509	27.42	40.20	0.01	7.61
10.539	27.42	40.20	-0.01	7.59
10.569	27.42	40.20	-0.01	7.59
10.599	27.54	40.31	-0.01	7.59
10.628	27.54	40.31	-0.08	7.52
10.658	27.54	40.31	-0.08	7.52
10.688	27.40	40.18	-0.08	7.52
10.718	27.40	40.18	0.05	7.64
10.747	27.40	40.18	0.05	7.64
10.777	27.58	40.36	0.05	7.64
10.807	27.58	40.36	-0.06	7.53
10.837	27.58	40.36	-0.06	7.53
10.866	27.41	40.19	-0.06	7.53
10.896	27.41	40.19	0.01	7.61
10.926	27.41	40.19	0.01	7.61
10.956	27.44	40.22	0.01	7.61
10.985	27.44	40.22	-0.01	7.59
11.015	27.44	40.22	-0.01	7.59
11.045	27.49	40.27	-0.01	7.59
11.075	27.49	40.27	-0.08	7.52
11.104	27.49	40.27	-0.08	7.52
11.134	27.42	40.20	-0.08	7.52
11.164	27.42	40.20	0.04	7.64
11.194	27.42	40.20	0.04	7.64
11.224	27.63	40.41	0.04	7.64
11.253	27.63	40.41	-0.07	7.53
11.283	27.63	40.41	-0.07	7.53
11.313	27.57	40.34	-0.07	7.53
11.343	27.57	40.34	0.02	7.61
11.372	27.57	40.34	0.02	7.61
11.402	27.43	40.20	0.02	7.61
11.432	27.43	40.20	-0.00	7.59
11.462	27.43	40.20	-0.00	7.59
11.491	27.53	40.30	-0.00	7.59
11.521	27.53	40.30	-0.07	7.52
11.551	27.53	40.30	-0.07	7.52
11.581	27.63	40.41	-0.07	7.52
11.610	27.63	40.41	0.05	7.64
11.640	27.63	40.41	0.05	7.64
11.670	27.66	40.43	0.05	7.64
11.700	27.66	40.43	-0.06	7.53
11.730	27.66	40.43	-0.06	7.53
11.759	27.63	40.40	-0.06	7.53
11.789	27.63	40.40	0.01	7.61
11.819	27.63	40.40	0.01	7.61
11.849	27.50	40.28	0.01	7.61
11.878	27.50	40.28	0.00	7.60
11.908	27.50	40.28	0.00	7.60
11.938	27.58	40.36	0.00	7.60
11.968	27.58	40.36	-0.08	7.52
11.997	27.58	40.36	-0.08	7.52
12.027	27.53	40.30	-0.08	7.52
12.057	27.53	40.30	0.05	7.64
12.087	27.53	40.30	0.05	7.64
12.116	27.72	40.50	0.05	7.64
12.146	27.72	40.50	-0.07	7.53
12.176	27.72	40.50	-0.07	7.53
12.206	27.58	40.35	-0.07	7.53
12.235	27.58	40.35	0.01	7.61
12.265	27.58	40.35	0.01	7.61
12.295	27.64	40.41	0.01	7.61
12.325	27.64	40.41	-0.00	7.59
12.355	27.64	40.41	-0.00	7.59
12.384	27.53	40.30	-0.00	7.59
12.414	27.53	40.30	-0.07	7.52
12.444	27.53	40.30	-0.07	7.52
12.474	27.56	40.34	-0.07	7.52
12.503	27.56	40.34	0.05	7.64
12.533	27.56	40.34	0.05	7.64
12.563	27.64	40.41	0.05	7.64
12.593	27.64	40.41	-0.06	7.53
12.622	27.64	40.41	-0.06	7.53
12.652	27.55	40.32	-0.06	7.53
12.682	27.55	40.32	0.01	7.61
12.712	27.55	40.32	0.01	7.61
12.741	27.50	40.28	0.01	7.61
12.771	27.50	40.28	0.01	7.60
12.801	27.50	40.28	0.01	7.60
12.831	27.53	40.31	0.01	7.60
12.860	27.53	40.31	-0.08	7.52
12.890	27.53	40.31	-0.08	7.52
12.920	27.46	40.24	-0.08	7.52
12.950	27.46	40.24	0.04	7.64
12.980	27.46	40.24	0.04	7.64
13.009	27.60	40.37	0.04	7.64
13.039	27.60	40.37	-0.06	7.54
13.069	27.60	40.37	-0.06	7.54
13.099	27.53	40.31	-0.06	7.54
13.128	27.53	40.31	0.01	7.60
13.158	27.53	40.31	0.01	7.60
13.188	27.51	40.28	0.01	7.60
13.218	27.51	40.28	0.01	7.60
13.247	27.51	40.28	0.01	7.60
13.277	27.56	40.34	0.01	7.60
13.307	27.56	40.34	-0.08	7.52
13.337	27.56	40.34	-0.08	7.52
13.366	27.52	40.29	-0.08	7.52
13.396	27.52	40.29	0.05	7.64
13.426	27.52	40.29	0.05	7.64
13.456	27.60	40.38	0.05	7.64
13.486	27.60	40.38	-0.06	7.54
13.515	27.60	40.38	-0.06	7.54
13.545	27.51	40.29	-0.06	7.54
13.575	27.51	40.29	0.01	7.60
13.605	27.51	40.29	0.01	7.60
13.634	27.40	40.17	0.01	7.60
13.664	27.40	40.17	0.01	7.60
13.694	27.40	40.17	0.01	7.60
13.724	27.47	40.24	0.01	7.60
13.753	27.47	40.24	-0.08	7.52
13.783	27.47	40.24	-0.08	7.52
13.813	27.36	40.14	-0.08	7.52
13.843	27.36	40.14	0.05	7.64
13.872	27.36	40.14	0.05	7.64
13.902	27.51	40.29	0.05	7.64
13.932	27.51	40.29	-0.06	7.54
13.962	27.51	40.29	-0.06	7.54
13.991	27.50	40.28	-0.06	7.54
14.021	27.50	40.28	0.01	7.60
14.051	27.50	40.28	0.01	7.60
14.081	27.49	40.26	0.01	7.60
14.111	27.49	40.26	0.01	7.61
14.140	27.49	40.26	0.01	7.61
14.170	27.51	40.29	0.01	7.61
14.200	27.51	40.29	-0.08	7.52
14.230	27.51	40.29	-0.08	7.52
14.259	27.54	40.32	-0.08	7.52
14.289	27.54	40.32	0.04	7.64
14.319	27.54	40.32	0.04	7.64
14.349	27.60	40.38	0.04	7.64
14.378	27.60	40.38	-0.06	7.54
14.408	27.60	40.38	-0.06	7.54
14.438	27.46	40.23	-0.06	7.54
14.468	27.46	40.23	0.00	7.60
14.497	27.46	40.23	0.00	7.60
14.527	27.46	40.24	0.00	7.60
14.557	27.46	40.24	0.02	7.61
14.587	27.46	40.24	0.02	7.61
14.617	27.65	40.42	0.02	7.61
14.646	27.65	40.42	-0.08	7.52
14.676	27.65	40.42	-0.08	7.52
14.706	27.52	40.30	-0.08	7.52
14.736	27.52	40.30	0.05	7.64
14.765	27.52	40.30	0.05	7.64
14.795	27.62	40.40	0.05	7.64
14.825	27.62	40.40	-0.05	7.54
14.855	27.62	40.40	-0.05	7.54
14.884	27.44	40.21	-0.05	7.54
14.914	27.44	40.21	-0.00	7.59
14.944	27.44	40.21	-0.00	7.59
14.974	27.47	40.25	-0.00	7.59
15.003	27.47	40.25	0.02	7.61
15.033	27.47	40.25	0.02	7.61
15.063	27.64	40.41	0.02	7.61
15.093	27.64	40.41	-0.08	7.52
15.122	27.64	40.41	-0.08	7.52
15.152	27.57	40.35	-0.08	7.52
15.182	27.57	40.35	0.04	7.64
15.212	27.57	40.35	0.04	7.64
15.242	27.58	40.36	0.04	7.64
15.271	27.58	40.36	-0.05	7.54
15.301	27.58	40.36	-0.05	7.54
15.331	27.48	40.25	-0.05	7.54
15.361	27.48	40.25	-0.00	7.60
15.390	27.48	40.25	-0.00	7.60
15.420	27.64	40.42	-0.00	7.60
15.450	27.64	40.42	0.03	7.63
15.479	27.64	40.42	0.03	7.63
15.509	27.59	40.37	0.03	7.63
15.539	27.59	40.37	-0.08	7.52
15.569	27.59	40.37	-0.08	7.52
15.599	27.46	40.23	-0.08	7.52
15.628	27.46	40.23	0.04	7.64
15.658	27.46	40.23	0.04	7.64
15.688	27.64	40.41	0.04	7.64
15.718	27.64	40.41	-0.05	7.54
15.747	27.64	40.41	-0.05	7.54
15.777	27.46	40.23	-0.05	7.54
15.807	27.46	40.23	-0.01	7.59
15.837	27.46	40.23	-0.01	7.59
15.866	27.50	40.27	-0.01	7.59
15.896	27.50	40.27	0.04	7.63
15.926	27.50	40.27	0.04	7.63
15.956	27.44	40.21	0.04	7.63
15.985	27.44	40.21	-0.07	7.52
16.015	27.44	40.21	-0.07	7.52
16.045	27.66	40.43	-0.07	7.52
16.075	27.66	40.43	0.04	7.64
16.104	27.66	40.43	0.04	7.64
16.134	27.71	40.49	0.04	7.64
16.164	27.71	40.49	-0.05	7.55
16.194	27.71	40.49	-0.05	7.55
16.224	27.58	40.36	-0.05	7.55
16.253	27.58	40.36	-0.01	7.59
16.283	27.58	40.36	-0.01	7.59
16.313	27.73	40.50	-0.01	7.59
16.343	27.73	40.50	0.03	7.63
16.372	27.73	40.50	0.03	7.63
16.402	27.64	40.42	0.03	7.63
16.432	27.64	40.42	-0.08	7.52
16.462	27.64	40.42	-0.08	7.52
16.491	27.76	40.54	-0.08	7.52
16.521	27.76	40.54	0.04	7.64
16.551	27.76	40.54	0.04	7.64
16.581	27.70	40.48	0.04	7.64
16.610	27.70	40.48	-0.05	7.54
16.640	27.70	40.48	-0.05	7.54
16.670	27.59	40.36	-0.05	7.54
16.700	27.59	40.36	-0.02	7.58
16.730	27.59	40.36	-0.02	7.58
16.759	27.59	40.37	-0.02	7.58
16.789	27.59	40.37	0.04	7.64
16.819	27.59	40.37	0.04	7.64
16.849	27.62	40.40	0.04	7.64
16.878	27.62	40.40	-0.08	7.52
16.908	27.62	40.40	-0.08	7.52
16.938	27.76	40.53	-0.08	7.52
16.968	27.76	40.53	0.03	7.63
16.997	27.76	40.53	0.03	7.63
17.027	27.63	40.40	0.03	7.63
17.057	27.63	40.40	-0.05	7.55
17.087	27.63	40.40	-0.05	7.55
17.116	27.68	40.45	-0.05	7.55
17.146	27.68	40.45	-0.03	7.57
17.176	27.68	40.45	-0.03	7.57
17.206	27.61	40.39	-0.03	7.57
17.235	27.61	40.39	0.04	7.64
17.265	27.61	40.39	0.04	7.64
17.295	27.62	40.40	0.04	7.64
17.325	27.62	40.40	-0.07	7.52
17.354	27.62	40.40	-0.07	7.52
17.384	27.71	40.49	-0.07	7.52
17.414	27.71	40.49	0.03	7.63
17.444	27.71	40.49	0.03	7.63
17.474	27.77	40.55	0.03	7.63
17.503	27.77	40.55	-0.05	7.55
17.533	27.77	40.55	-0.05	7.55
17.563	27.72	40.50	-0.05	7.55
17.593	27.72	40.50	-0.03	7.57
17.622	27.72	40.50	-0.03	7.57
17.652	27.69	40.47	-0.03	7.57
17.682	27.69	40.47	0.04	7.64
17.712	27.69	40.47	0.04	7.64
17.741	27.61	40.38	0.04	7.64
17.771	27.61	40.38	-0.08	7.52
17.801	27.61	40.38	-0.08	7.52
17.831	27.69	40.46	-0.08	7.52
17.860	27.69	40.46	0.03	7.63
17.890	27.69	40.46	0.03	7.63
17.920	27.67	40.44	0.03	7.63
17.950	27.67	40.44	-0.04	7.55
17.979	27.67	40.44	-0.04	7.55
18.009	27.63	40.41	-0.04	7.55
18.039	27.63	40.41	-0.04	7.56
18.069	27.63	40.41	-0.04	7.56
18.098	27.60	40.38	-0.04	7.56
18.128	27.60	40.38	0.04	7.64
18.158	27.60	40.38	0.04	7.64
18.188	27.63	40.40	0.04	7.64
18.218	27.63	40.40	-0.08	7.52
18.247	27.63	40.40	-0.08	7.52
18.277	27.81	40.58	-0.08	7.52
18.307	27.81	40.58	0.03	7.63
18.337	27.81	40.58	0.03	7.63
18.366	27.70	40.48	0.03	7.63
18.396	27.70	40.48	-0.04	7.55
18.426	27.70	40.48	-0.04	7.55
18.456	27.75	40.52	-0.04	7.55
18.485	27.75	40.52	-0.04	7.56
18.515	27.75	40.52	-0.04	7.56
18.545	27.70	40.47	-0.04	7.56
18.575	27.70	40.47	0.04	7.64
18.604	27.70	40.47	0.04	7.64
18.634	27.61	40.39	0.04	7.64
18.664	27.61	40.39	-0.08	7.52
18.694	27.61	40.39	-0.08	7.52
18.724	27.96	40.74	-0.08	7.52
18.753	27.96	40.74	0.03	7.62
18.783	27.96	40.74	0.03	7.62
18.813	27.80	40.58	0.03	7.62
18.843	27.80	40.58	-0.04	7.56
18.872	27.80	40.58	-0.04	7.56
18.902	27.90	40.67	-0.04	7.56
18.932	27.90	40.67	-0.05	7.55
18.962	27.90	40.67	-0.05	7.55
18.991	27.66	40.43	-0.05	7.55
19.021	27.66	40.43	0.05	7.64
19.051	27.66	40.43	0.05	7.64
19.081	27.68	40.45	0.05	7.64
19.110	27.68	40.45	-0.08	7.52
19.140	27.68	40.45	-0.08	7.52
19.170	27.80	40.58	-0.08	7.52
19.200	27.80	40.58	0.02	7.62
19.229	27.80	40.58	0.02	7.62
19.259	27.77	40.54	0.02	7.62
19.289	27.77	40.54	-0.04	7.56
19.319	27.77	40.54	-0.04	7.56
19.349	27.74	40.51	-0.04	7.56
19.378	27.74	40.51	-0.05	7.55
19.408	27.74	40.51	-0.05	7.55
19.438	27.59	40.37	-0.05	7.55
19.468	27.59	40.37	0.05	7.64
19.497	27.59	40.37	0.05	7.64
19.527	27.73	40.51	0.05	7.64
19.557	27.73	40.51	-0.08	7.52
19.587	27.73	40.51	-0.08	7.52
19.616	27.88	40.66	-0.08	7.52
19.646	27.88	40.66	0.02	7.62
19.676	27.88	40.66	0.02	7.62
19.706	27.72	40.50	0.02	7.62
19.735	27.72	40.50	-0.03	7.56
19.765	27.72	40.50	-0.03	7.56
19.795	27.75	40.53	-0.03	7.56
19.825	27.75	40.53	-0.06	7.54
19.854	27.75	40.53	-0.06	7.54
19.884	27.91	40.69	-0.06	7.54
19.914	27.91	40.69	0.04	7.64
19.944	27.91	40.69	0.04	7.64
19.973	27.72	40.49	0.04	7.64
20.003	27.72	40.49	-0.07	7.52
20.033	27.72	40.49	-0.07	7.52
20.063	27.85	40.62	-0.07	7.52
20.093	27.85	40.62	0.02	7.62
20.122	27.85	40.62	0.02	7.62
20.152	27.86	40.64	0.02	7.62
20.182	27.86	40.64	-0.03	7.57
20.212	27.86	40.64	-0.03	7.57
20.241	27.66	40.44	-0.03	7.57
20.271	27.66	40.44	-0.06	7.54
20.301	27.66	40.44	-0.06	7.54
20.331	27.74	40.52	-0.06	7.54
20.360	27.74	40.52	0.05	7.65
20.390	27.74	40.52	0.05	7.65
20.420	27.73	40.50	0.05	7.65
20.450	27.73	40.50	-0.07	7.52
20.479	27.73	40.50	-0.07	7.52
20.509	27.82	40.59	-0.07	7.52
20.539	27.82	40.59	0.02	7.62
20.569	27.82	40.59	0.02	7.62
20.599	27.89	40.67	0.02	7.62
20.628	27.89	40.67	-0.03	7.57
20.658	27.89	40.67	-0.03	7.57
20.688	27.80	40.58	-0.03	7.57
20.718	27.80	40.58	-0.06	7.53
20.747	27.80	40.58	-0.06	7.53
20.777	27.75	40.52	-0.06	7.53
20.807	27.75	40.52	0.04	7.64
20.837	27.75	40.52	0.04	7.64
20.866	27.73	40.51	0.04	7.64
20.896	27.73	40.51	-0.07	7.53
20.926	27.73	40.51	-0.07	7.53
20.956	27.83	40.60	-0.07	7.53
20.985	27.83	40.60	0.02	7.61
21.015	27.83	40.60	0.02	7.61
21.045	27.74	40.51	0.02	7.61
21.075	27.74	40.51	-0.02	7.58
21.104	27.74	40.51	-0.02	7.58
21.134	27.77	40.54	-0.02	7.58
21.164	27.77	40.54	-0.06	7.53
21.194	27.77	40.54	-0.06	7.53
21.223	27.81	40.58	-0.06	7.53
21.253	27.81	40.58	0.05	7.64
21.283	27.81	40.58	0.05	7.64
21.313	27.84	40.61	0.05	7.64
21.343	27.84	40.61	-0.07	7.53
21.372	27.84	40.61	-0.07	7.53
21.402	27.87	40.65	-0.07	7.53
21.432	27.87	40.65	0.02	7.62
21.462	27.87	40.65	0.02	7.62
21.491	27.75	40.52	0.02	7.62
21.521	27.75	40.52	-0.02	7.58
21.551	27.75	40.52	-0.02	7.58
21.581	27.76	40.54	-0.02	7.58
21.610	27.76	40.54	-0.07	7.53
21.640	27.76	40.54	-0.07	7.53
21.670	27.73	40.50	-0.07	7.53
21.700	27.73	40.50	0.05	7.64
21.729	27.73	40.50	0.05	7.64
21.759	27.68	40.46	0.05	7.64
21.789	27.68	40.46	-0.07	7.53
21.819	27.68	40.46	-0.07	7.53
21.848	27.73	40.50	-0.07	7.53
21.878	27.73	40.50	0.01	7.61
21.908	27.73	40.50	0.01	7.61
21.938	27.75	40.52	0.01	7.61
21.968	27.75	40.52	-0.01	7.58
21.997	27.75	40.52	-0.01	7.58
22.027	27.74	40.52	-0.01	7.58
22.057	27.74	40.52	-0.07	7.53
22.087	27.74	40.52	-0.07	7.53
22.116	27.80	40.57	-0.07	7.53
22.146	27.80	40.57	0.05	7.64
22.176	27.80	40.57	0.05	7.64
22.206	27.77	40.55	0.05	7.64
22.235	27.77	40.55	-0.07	7.53
22.265	27.77	40.55	-0.07	7.53
22.295	27.88	40.66	-0.07	7.53
22.325	27.88	40.66	0.02	7.62
22.354	27.88	40.66	0.02	7.62
22.384	27.77	40.55	0.02	7.62
22.414	27.77	40.55	-0.01	7.58
22.444	27.77	40.55	-0.01	7.58
22.473	27.67	40.44	-0.01	7.58
22.503	27.67	40.44	-0.07	7.52
22.533	27.67	40.44	-0.07	7.52
22.563	27.87	40.65	-0.07	7.52
22.593	27.87	40.65	0.04	7.64
22.622	27.87	40.65	0.04	7.64
22.652	27.82	40.60	0.04	7.64
22.682	27.82	40.60	-0.06	7.53
22.712	27.82	40.60	-0.06	7.53
22.741	27.91	40.69	-0.06	7.53
22.771	27.91	40.69	0.01	7.61
22.801	27.91	40.69	0.01	7.61
22.831	27.76	40.54	0.01	7.61
22.860	27.76	40.54	-0.00	7.59
22.890	27.76	40.54	-0.00	7.59
22.920	27.81	40.59	-0.00	7.59
22.950	27.81	40.59	-0.08	7.52
22.979	27.81	40.59	-0.08	7.52
23.009	27.72	40.50	-0.08	7.52
23.039	27.72	40.50	0.04	7.64
23.069	27.72	40.50	0.04	7.64
23.098	27.86	40.64	0.04	7.64
23.128	27.86	40.64	-0.06	7.54
23.158	27.86	40.64	-0.06	7.54
23.188	27.89	40.67	-0.06	7.54
23.218	27.89	40.67	0.01	7.61
23.247	27.89	40.67	0.01	7.61
23.277	27.77	40.55	0.01	7.61
23.307	27.77	40.55	-0.00	7.59
23.337	27.77	40.55	-0.00	7.59
23.366	27.73	40.50	-0.00	7.59
23.396	27.73	40.50	-0.07	7.52
23.426	27.73	40.50	-0.07	7.52
23.456	27.76	40.54	-0.07	7.52
23.485	27.76	40.54	0.05	7.64
23.515	27.76	40.54	0.05	7.64
23.545	27.75	40.53	0.05	7.64
23.575	27.75	40.53	-0.06	7.53
23.604	27.75	40.53	-0.06	7.53
23.634	27.85	40.63	-0.06	7.53
23.664	27.85	40.63	0.01	7.61
23.694	27.85	40.63	0.01	7.61
23.723	27.74	40.51	0.01	7.61
23.753	27.74	40.51	0.00	7.60
23.783	27.74	40.51	0.00	7.60
23.813	27.81	40.59	0.00	7.60
23.843	27.81	40.59	-0.08	7.52
23.872	27.81	40.59	-0.08	7.52
23.902	27.76	40.54	-0.08	7.52
23.932	27.76	40.54	0.05	7.64
23.962	27.76	40.54	0.05	7.64
23.991	27.83	40.60	0.05	7.64
24.021	27.83	40.60	-0.06	7.53
24.051	27.83	40.60	-0.06	7.53
24.081	27.81	40.59	-0.06	7.53
24.110	27.81	40.59	0.01	7.61
24.140	27.81	40.59	0.01	7.61
24.170	27.77	40.55	0.01	7.61
24.200	27.77	40.55	0.01	7.60
24.229	27.77	40.55	0.01	7.60
24.259	27.65	40.42	0.01	7.60
24.289	27.65	40.42	-0.07	7.52
24.319	27.65	40.42	-0.07	7.52
24.349	27.80	40.58	-0.07	7.52
24.378	27.80	40.58	0.05	7.65
24.408	27.80	40.58	0.05	7.65
24.438	27.79	40.56	0.05	7.65
24.468	27.79	40.56	-0.06	7.53
24.497	27.79	40.56	-0.06	7.53
24.527	27.77	40.55	-0.06	7.53
24.557	27.77	40.55	0.01	7.61
24.587	27.77	40.55	0.01	7.61
24.616	27.70	40.47	0.01	7.61
24.646	27.70	40.47	0.01	7.60
24.676	27.70	40.47	0.01	7.60
24.706	27.70	40.47	0.01	7.60
24.735	27.70	40.47	-0.08	7.52
24.765	27.70	40.47	-0.08	7.52
24.795	27.75	40.52	-0.08	7.52
24.825	27.75	40.52	0.04	7.64
24.854	27.75	40.52	0.04	7.64
24.884	27.74	40.51	0.04	7.64
24.914	27.74	40.51	-0.06	7.54
24.944	27.74	40.51	-0.06	7.54
24.973	27.73	40.51	-0.06	7.54
25.003	27.73	40.51	0.01	7.60
25.033	27.73	40.51	0.01	7.60
25.063	27.63	40.40	0.01	7.60
25.093	27.63	40.40	0.01	7.60
25.122	27.63	40.40	0.01	7.60
25.152	27.68	40.46	0.01	7.60
25.182	27.68	40.46	-0.08	7.52
25.212	27.68	40.46	-0.08	7.52
25.241	27.75	40.53	-0.08	7.52
25.271	27.75	40.53	0.05	7.64
25.301	27.75	40.53	0.05	7.64
25.331	27.75	40.52	0.05	7.64
25.360	27.75	40.52	-0.06	7.54
25.390	27.75	40.52	-0.06	7.54
25.420	27.83	40.61	-0.06	7.54
25.450	27.83	40.61	0.01	7.60
25.479	27.83	40.61	0.01	7.60
25.509	27.76	40.54	0.01	7.60
25.539	27.76	40.54	0.02	7.61
25.569	27.76	40.54	0.02	7.61
25.599	27.66	40.44	0.02	7.61
25.628	27.66	40.44	-0.07	7.52
25.658	27.66	40.44	-0.07	7.52
25.688	27.68	40.45	-0.07	7.52
25.718	27.68	40.45	0.04	7.64
25.747	27.68	40.45	0.04	7.64
25.777	27.80	40.58	0.04	7.64
25.807	27.80	40.58	-0.05	7.54
25.837	27.80	40.58	-0.05	7.54
25.866	27.73	40.50	-0.05	7.54
25.896	27.73	40.50	0.00	7.60
25.926	27.73	40.50	0.00	7.60
25.956	27.67	40.45	0.00	7.60
25.985	27.67	40.45	0.01	7.61
26.015	27.67	40.45	0.01	7.61
26.045	27.64	40.42	0.01	7.61
26.075	27.64	40.42	-0.07	7.53
26.104	27.64	40.42	-0.07	7.53
26.134	27.67	40.45	-0.07	7.53
26.164	27.67	40.45	0.04	7.64
26.194	27.67	40.45	0.04	7.64
26.224	27.78	40.55	0.04	7.64
26.253	27.78	40.55	-0.06	7.54
26.283	27.78	40.55	-0.06	7.54
26.313	27.74	40.52	-0.06	7.54
26.343	27.74	40.52	0.00	7.60
26.372	27.74	40.52	0.00	7.60
26.402	27.74	40.52	0.00	7.60
26.432	27.74	40.52	0.02	7.61
26.462	27.74	40.52	0.02	7.61
26.491	27.64	40.42	0.02	7.61
26.521	27.64	40.42	-0.08	7.52
26.551	27.64	40.42	-0.08	7.52
26.581	27.76	40.53	-0.08	7.52
26.610	27.76	40.53	0.05	7.64
26.640	27.76	40.53	0.05	7.64
26.670	27.89	40.67	0.05	7.64
26.700	27.89	40.67	-0.06	7.54
26.729	27.89	40.67	-0.06	7.54
26.759	27.78	40.56	-0.06	7.54
26.789	27.78	40.56	0.00	7.60
26.819	27.78	40.56	0.00	7.60
26.849	27.78	40.56	0.00	7.60
26.878	27.78	40.56	0.02	7.62
26.908	27.78	40.56	0.02	7.62
26.938	27.69	40.46	0.02	7.62
26.968	27.69	40.46	-0.08	7.52
26.997	27.69	40.46	-0.08	7.52
27.027	27.74	40.52	-0.08	7.52
27.057	27.74	40.52	0.04	7.64
27.087	27.74	40.52	0.04	7.64
27.116	27.78	40.56	0.04	7.64
27.146	27.78	40.56	-0.05	7.54
27.176	27.78	40.56	-0.05	7.54
27.206	27.78	40.55	-0.05	7.54
27.235	27.78	40.55	0.00	7.60
27.265	27.78	40.55	0.00	7.60
27.295	27.76	40.53	0.00	7.60
27.325	27.76	40.53	0.02	7.62
27.355	27.76	40.53	0.02	7.62
27.384	27.76	40.54	0.02	7.62
27.414	27.76	40.54	-0.08	7.52
27.444	27.76	40.54	-0.08	7.52
27.474	27.76	40.54	-0.08	7.52
27.503	27.76	40.54	0.04	7.64
27.533	27.76	40.54	0.04	7.64
27.563	27.85	40.63	0.04	7.64
27.593	27.85	40.63	-0.05	7.54
27.622	27.85	40.63	-0.05	7.54
27.652	27.78	40.55	-0.05	7.54
27.682	27.78	40.55	0.00	7.60
27.712	27.78	40.55	0.00	7.60
27.741	27.74	40.52	0.00	7.60
27.771	27.74	40.52	0.02	7.62
27.801	27.74	40.52	0.02	7.62
27.831	27.79	40.56	0.02	7.62
27.860	27.79	40.56	-0.08	7.52
27.890	27.79	40.56	-0.08	7.52
27.920	27.63	40.40	-0.08	7.52
27.950	27.63	40.40	0.04	7.64
27.980	27.63	40.40	0.04	7.64
28.009	27.89	40.66	0.04	7.64
28.039	27.89	40.66	-0.05	7.55
28.069	27.89	40.66	-0.05	7.55
28.099	27.83	40.60	-0.05	7.55
28.128	27.83	40.60	-0.00	7.59
28.158	27.83	40.60	-0.00	7.59
28.188	27.73	40.50	-0.00	7.59
28.218	27.73	40.50	0.02	7.62
28.247	27.73	40.50	0.02	7.62
28.277	27.75	40.53	0.02	7.62
28.307	27.75	40.53	-0.07	7.52
28.337	27.75	40.53	-0.07	7.52
28.366	27.67	40.44	-0.07	7.52
28.396	27.67	40.44	0.04	7.64
28.426	27.67	40.44	0.04	7.64
28.456	27.92	40.69	0.04	7.64
28.485	27.92	40.69	-0.06	7.54
28.515	27.92	40.69	-0.06	7.54
28.545	27.74	40.51	-0.06	7.54
28.575	27.74	40.51	-0.01	7.59
28.605	27.74	40.51	-0.01	7.59
28.634	27.71	40.49	-0.01	7.59
28.664	27.71	40.49	0.03	7.62
28.694	27.71	40.49	0.03	7.62
28.724	27.76	40.53	0.03	7.62
28.753	27.76	40.53	-0.08	7.52
28.783	27.76	40.53	-0.08	7.52
28.813	27.73	40.50	-0.08	7.52
28.843	27.73	40.50	0.04	7.64
28.872	27.73	40.50	0.04	7.64
28.902	27.84	40.62	0.04	7.64
28.932	27.84	40.62	-0.06	7.54
28.962	27.84	40.62	-0.06	7.54
28.991	27.75	40.53	-0.06	7.54
29.021	27.75	40.53	-0.01	7.59
29.051	27.75	40.53	-0.01	7.59
29.081	27.79	40.57	-0.01	7.59
29.110	27.79	40.57	0.02	7.62
29.140	27.79	40.57	0.02	7.62
29.170	27.67	40.44	0.02	7.62
29.200	27.67	40.44	-0.08	7.52
29.230	27.67	40.44	-0.08	7.52
29.259	27.69	40.47	-0.08	7.52
29.289	27.69	40.47	0.04	7.64
29.319	27.69	40.47	0.04	7.64
29.349	27.83	40.61	0.04	7.64
29.378	27.83	40.61	-0.05	7.55
29.408	27.83	40.61	-0.05	7.55
29.438	27.72	40.49	-0.05	7.55
29.468	27.72	40.49	-0.01	7.59
29.497	27.72	40.49	-0.01	7.59
29.527	27.74	40.52	-0.01	7.59
29.557	27.74	40.52	0.03	7.62
29.587	27.74	40.52	0.03	7.62
29.616	27.80	40.57	0.03	7.62
29.646	27.80	40.57	-0.08	7.52
29.676	27.80	40.57	-0.08	7.52
29.706	27.70	40.47	-0.08	7.52
29.736	27.70	40.47	0.04	7.64
29.765	27.70	40.47	0.04	7.64
29.795	27.85	40.63	0.04	7.64
29.825	27.85	40.63	-0.05	7.54
29.855	27.85	40.63	-0.05	7.54
29.884	27.74	40.52	-0.05	7.54
29.914	27.74	40.52	-0.00	7.59
29.944	27.74	40.52	-0.00	7.59
29.974	27.73	40.51	-0.00	7.59
30.003	27.73	40.51	0.03	7.63
30.033	27.73	40.51	0.03	7.63
30.063	27.69	40.47	0.03	7.63
30.093	27.69	40.47	-0.08	7.52
30.122	27.69	40.47	-0.08	7.52
30.152	27.57	40.35	-0.08	7.52
30.182	27.57	40.35	0.04	7.64
30.212	27.57	40.35	0.04	7.64
30.241	27.87	40.65	0.04	7.64
30.271	27.87	40.65	-0.05	7.54
30.301	27.87	40.65	-0.05	7.54
30.331	27.78	40.55	-0.05	7.54
30.361	27.78	40.55	-0.00	7.59
30.390	27.78	40.55	-0.00	7.59
30.420	27.70	40.47	-0.00	7.59
30.450	27.70	40.47	0.03	7.63
30.480	27.70	40.47	0.03	7.63
30.509	27.67	40.45	0.03	7.63
30.539	27.67	40.45	-0.08	7.52
30.569	27.67	40.45	-0.08	7.52
30.599	27.69	40.47	-0.08	7.52
30.628	27.69	40.47	0.04	7.64
30.658	27.69	40.47	0.04	7.64
30.688	27.74	40.52	0.04	7.64
30.718	27.74	40.52	-0.05	7.55
30.747	27.74	40.52	-0.05	7.55
30.777	27.77	40.55	-0.05	7.55
30.807	27.77	40.55	-0.00	7.59
30.837	27.77	40.55	-0.00	7.59
30.866	27.69	40.47	-0.00	7.59
30.896	27.69	40.47	0.03	7.62
30.926	27.69	40.47	0.03	7.62
30.956	27.68	40.45	0.03	7.62
30.985	27.68	40.45	-0.08	7.52
31.015	27.68	40.45	-0.08	7.52
31.045	27.64	40.41	-0.08	7.52
31.075	27.64	40.41	0.04	7.64
31.105	27.64	40.41	0.04	7.64
31.134	27.87	40.65	0.04	7.64
31.164	27.87	40.65	-0.06	7.54
31.194	27.87	40.65	-0.06	7.54
31.224	27.75	40.52	-0.06	7.54
31.253	27.75	40.52	-0.00	7.59
31.283	27.75	40.52	-0.00	7.59
31.313	27.82	40.59	-0.00	7.59
31.343	27.82	40.59	0.02	7.62
31.372	27.82	40.59	0.02	7.62
31.402	27.77	40.55	0.02	7.62
31.432	27.77	40.55	-0.08	7.52
31.462	27.77	40.55	-0.08	7.52
31.491	27.67	40.45	-0.08	7.52
31.521	27.67	40.45	0.04	7.64
31.551	27.67	40.45	0.04	7.64
31.581	27.84	40.62	0.04	7.64
31.611	27.84	40.62	-0.05	7.54
31.640	27.84	40.62	-0.05	7.54
31.670	27.77	40.55	-0.05	7.54
31.700	27.77	40.55	-0.00	7.60
31.730	27.77	40.55	-0.00	7.60
31.759	27.70	40.47	-0.00	7.60
31.789	27.70	40.47	0.02	7.62
31.819	27.70	40.47	0.02	7.62
31.848	27.66	40.44	0.02	7.62
31.878	27.66	40.44	-0.07	7.53
31.908	27.66	40.44	-0.07	7.53
31.938	27.67	40.45	-0.07	7.53
31.968	27.67	40.45	0.04	7.64
31.997	27.67	40.45	0.04	7.64
32.027	27.77	40.54	0.04	7.64
32.057	27.77	40.54	-0.05	7.54
32.087	27.77	40.54	-0.05	7.54
32.116	27.72	40.50	-0.05	7.54
32.146	27.72	40.50	-0.00	7.59
32.176	27.72	40.50	-0.00	7.59
32.206	27.61	40.39	-0.00	7.59
32.235	27.61	40.39	0.02	7.62
32.265	27.61	40.39	0.02	7.62
32.295	27.64	40.42	0.02	7.62
32.325	27.64	40.42	-0.08	7.52
32.354	27.64	40.42	-0.08	7.52
32.384	27.56	40.33	-0.08	7.52
32.414	27.56	40.33	0.04	7.64
32.444	27.56	40.33	0.04	7.64
32.473	27.78	40.56	0.04	7.64
32.503	27.78	40.56	-0.06	7.54
32.533	27.78	40.56	-0.06	7.54
32.563	27.75	40.53	-0.06	7.54
32.593	27.75	40.53	-0.00	7.60
32.622	27.75	40.53	-0.00	7.60
32.652	27.69	40.47	-0.00	7.60
32.682	27.69	40.47	0.02	7.62
32.711	27.69	40.47	0.02	7.62
32.741	27.69	40.46	0.02	7.62
32.771	27.69	40.46	-0.08	7.52
32.801	27.69	40.46	-0.08	7.52
32.830	27.66	40.44	-0.08	7.52
32.860	27.66	40.44	0.04	7.64
32.890	27.66	40.44	0.04	7.64
32.920	27.83	40.61	0.04	7.64
32.950	27.83	40.61	-0.05	7.55
32.979	27.83	40.61	-0.05	7.55
33.009	27.83	40.60	-0.05	7.55
33.039	27.83	40.60	0.00	7.60
33.069	27.83	40.60	0.00	7.60
33.098	27.73	40.51	0.00	7.60
33.128	27.73	40.51	0.02	7.61
33.158	27.73	40.51	0.02	7.61
33.188	27.81	40.59	0.02	7.61
33.217	27.81	40.59	-0.08	7.52
33.247	27.81	40.59	-0.08	7.52
33.277	27.77	40.55	-0.08	7.52
33.307	27.77	40.55	0.04	7.64
33.336	27.77	40.55	0.04	7.64
33.366	27.83	40.61	0.04	7.64
33.396	27.83	40.61	-0.06	7.54
33.426	27.83	40.61	-0.06	7.54
33.456	27.69	40.47	-0.06	7.54
33.485	27.69	40.47	0.00	7.60
33.515	27.69	40.47	0.00	7.60
33.545	27.72	40.49	0.00	7.60
33.575	27.72	40.49	0.02	7.61
33.604	27.72	40.49	0.02	7.61
33.634	27.79	40.57	0.02	7.61
33.664	27.79	40.57	-0.07	7.52
33.694	27.79	40.57	-0.07	7.52
33.723	27.66	40.43	-0.07	7.52
33.753	27.66	40.43	0.04	7.64
33.783	27.66	40.43	0.04	7.64
33.813	27.84	40.61	0.04	7.64
33.842	27.84	40.61	-0.06	7.54
33.872	27.84	40.61	-0.06	7.54
33.902	27.71	40.48	-0.06	7.54
33.932	27.71	40.48	0.01	7.60
33.961	27.71	40.48	0.01	7.60
33.991	27.73	40.51	0.01	7.60
34.021	27.73	40.51	0.01	7.61
34.051	27.73	40.51	0.01	7.61
34.081	27.81	40.58	0.01	7.61
34.110	27.81	40.58	-0.08	7.52
34.140	27.81	40.58	-0.08	7.52
34.170	27.69	40.47	-0.08	7.52
34.200	27.69	40.47	0.04	7.64
34.229	27.69	40.47	0.04	7.64
34.259	27.70	40.48	0.04	7.64
34.289	27.70	40.48	-0.06	7.54
34.319	27.70	40.48	-0.06	7.54
34.348	27.73	40.51	-0.06	7.54
34.378	27.73	40.51	0.01	7.60
34.408	27.73	40.51	0.01	7.60
34.438	27.73	40.50	0.01	7.60
34.468	27.73	40.50	0.01	7.60
34.497	27.73	40.50	0.01	7.60
34.527	27.75	40.52	0.01	7.60
34.557	27.75	40.52	-0.08	7.52
34.587	27.75	40.52	-0.08	7.52
34.616	27.60	40.38	-0.08	7.52
34.646	27.60	40.38	0.04	7.64
34.676	27.60	40.38	0.04	7.64
34.706	27.76	40.53	0.04	7.64
34.735	27.76	40.53	-0.06	7.53
34.765	27.76	40.53	-0.06	7.53
34.795	27.70	40.48	-0.06	7.53
34.825	27.70	40.48	0.00	7.60
34.854	27.70	40.48	0.00	7.60
34.884	27.71	40.48	0.00	7.60
34.914	27.71	40.48	0.01	7.60
34.944	27.71	40.48	0.01	7.60
34.973	27.75	40.53	0.01	7.60
35.003	27.75	40.53	-0.07	7.52
35.033	27.75	40.53	-0.07	7.52
35.063	27.68	40.46	-0.07	7.52
35.092	27.68	40.46	0.04	7.64
35.122	27.68	40.46	0.04	7.64
35.152	27.76	40.53	0.04	7.64
35.182	27.76	40.53	-0.06	7.54
35.212	27.76	40.53	-0.06	7.54
35.241	27.73	40.50	-0.06	7.54
35.271	27.73	40.50	0.01	7.61
35.301	27.73	40.50	0.01	7.61
35.331	27.66	40.44	0.01	7.61
35.360	27.66	40.44	0.00	7.60
35.390	27.66	40.44	0.00	7.60
35.420	27.74	40.52	0.00	7.60
35.450	27.74	40.52	-0.08	7.52
35.479	27.74	40.52	-0.08	7.52
35.509	27.57	40.34	-0.08	7.52
35.539	27.57	40.34	0.05	7.64
35.569	27.57	40.34	0.05	7.64
35.598	27.85	40.63	0.05	7.64
35.628	27.85	40.63	-0.06	7.53
35.658	27.85	40.63	-0.06	7.53
35.688	27.76	40.54	-0.06	7.53
35.718	27.76	40.54	0.01	7.61
35.747	27.76	40.54	0.01	7.61
35.777	27.77	40.55	0.01	7.61
35.807	27.77	40.55	-0.00	7.60
35.837	27.77	40.55	-0.00	7.60
35.866	27.76	40.54	-0.00	7.60
35.896	27.76	40.54	-0.07	7.52
35.926	27.76	40.54	-0.07	7.52
35.955	27.66	40.43	-0.07	7.52
35.985	27.66	40.43	0.05	7.64
36.015	27.66	40.43	0.05	7.64
36.045	27.81	40.59	0.05	7.64
36.075	27.81	40.59	-0.06	7.54
36.104	27.81	40.59	-0.06	7.54
36.134	27.82	40.59	-0.06	7.54
36.164	27.82	40.59	0.01	7.61
36.194	27.82	40.59	0.01	7.61
36.223	27.71	40.48	0.01	7.61
36.253	27.71	40.48	-0.00	7.59
36.283	27.71	40.48	-0.00	7.59
36.313	27.78	40.56	-0.00	7.59
36.342	27.78	40.56	-0.08	7.52
36.372	27.78	40.56	-0.08	7.52
36.402	27.71	40.49	-0.08	7.52
36.432	27.71	40.49	0.04	7.64
36.461	27.71	40.49	0.04	7.64
36.491	27.81	40.59	0.04	7.64
36.521	27.81	40.59	-0.06	7.53
36.551	27.81	40.59	-0.06	7.53
36.581	27.78	40.56	-0.06	7.53
36.610	27.78	40.56	0.01	7.61
36.640	27.78	40.56	0.01	7.61
36.670	27.72	40.50	0.01	7.61
36.700	27.72	40.50	-0.01	7.59
36.729	27.72	40.50	-0.01	7.59
36.759	27.76	40.54	-0.01	7.59
36.789	27.76	40.54	-0.07	7.52
36.819	27.76	40.54	-0.07	7.52
36.848	27.63	40.40	-0.07	7.52
36.878	27.63	40.40	0.04	7.64
36.908	27.63	40.40	0.04	7.64
36.938	27.72	40.49	0.04	7.64
36.967	27.72	40.49	-0.07	7.53
36.997	27.72	40.49	-0.07	7.53
37.027	27.70	40.48	-0.07	7.53
37.057	27.70	40.48	0.02	7.61
37.086	27.70	40.48	0.02	7.61
37.116	27.69	40.47	0.02	7.61
37.146	27.69	40.47	-0.01	7.59
37.176	27.69	40.47	-0.01	7.59
37.206	27.67	40.45	-0.01	7.59
37.235	27.67	40.45	-0.07	7.53
37.265	27.67	40.45	-0.07	7.53
37.295	27.67	40.45	-0.07	7.53
37.325	27.67	40.45	0.05	7.64
37.354	27.67	40.45	0.05	7.64
37.384	27.80	40.58	0.05	7.64
37.414	27.80	40.58	-0.07	7.53
37.444	27.80	40.58	-0.07	7.53
37.473	27.74	40.52	-0.07	7.53
37.503	27.74	40.52	0.02	7.61
37.533	27.74	40.52	0.02	7.61
37.563	27.75	40.52	0.02	7.61
37.592	27.75	40.52	-0.02	7.58
37.622	27.75	40.52	-0.02	7.58
37.652	27.73	40.50	-0.02	7.58
37.682	27.73	40.50	-0.07	7.53
37.711	27.73	40.50	-0.07	7.53
37.741	27.63	40.41	-0.07	7.53
37.771	27.63	40.41	0.04	7.64
37.801	27.63	40.41	0.04	7.64
37.830	27.77	40.55	0.04	7.64
37.860	27.77	40.55	-0.07	7.53
37.890	27.77	40.55	-0.07	7.53
37.920	27.79	40.57	-0.07	7.53
37.950	27.79	40.57	0.02	7.62
37.979	27.79	40.57	0.02	7.62
38.009	27.74	40.52	0.02	7.62
38.039	27.74	40.52	-0.02	7.58
38.069	27.74	40.52	-0.02	7.58
38.098	27.73	40.50	-0.02	7.58
38.128	27.73	40.50	-0.06	7.53
38.158	27.73	40.50	-0.06	7.53
38.188	27.58	40.36	-0.06	7.53
38.217	27.58	40.36	0.05	7.64
38.247	27.58	40.36	0.05	7.64
38.277	27.86	40.64	0.05	7.64
38.307	27.86	40.64	-0.07	7.53
38.336	27.86	40.64	-0.07	7.53
38.366	27.80	40.58	-0.07	7.53
38.396	27.80	40.58	0.02	7.62
38.426	27.80	40.58	0.02	7.62
38.456	27.78	40.56	0.02	7.62
38.485	27.78	40.56	-0.02	7.58
38.515	27.78	40.56	-0.02	7.58
38.545	27.84	40.61	-0.02	7.58
38.575	27.84	40.61	-0.06	7.53
38.604	27.84	40.61	-0.06	7.53
38.634	27.69	40.47	-0.06	7.53
38.664	27.69	40.47	0.04	7.64
38.694	27.69	40.47	0.04	7.64
38.723	27.82	40.60	0.04	7.64
38.753	27.82	40.60	-0.07	7.52
38.783	27.82	40.60	-0.07	7.52
38.813	27.74	40.51	-0.07	7.52
38.842	27.74	40.51	0.02	7.62
38.872	27.74	40.51	0.02	7.62
38.902	27.76	40.54	0.02	7.62
38.932	27.76	40.54	-0.03	7.57
38.961	27.76	40.54	-0.03	7.57
38.991	27.82	40.59	-0.03	7.57
39.021	27.82	40.59	-0.06	7.54
39.051	27.82	40.59	-0.06	7.54
39.081	27.79	40.56	-0.06	7.54
39.110	27.79	40.56	0.04	7.64
39.140	27.79	40.56	0.04	7.64
39.170	27.95	40.72	0.04	7.64
39.200	27.95	40.72	-0.07	7.53
39.229	27.95	40.72	-0.07	7.53
39.259	27.76	40.53	-0.07	7.53
39.289	27.76	40.53	0.02	7.62
39.319	27.76	40.53	0.02	7.62
39.348	27.85	40.63	0.02	7.62
39.378	27.85	40.63	-0.03	7.57
39.408	27.85	40.63	-0.03	7.57
39.438	27.85	40.62	-0.03	7.57
39.467	27.85	40.62	-0.06	7.54
39.497	27.85	40.62	-0.06	7.54
39.527	27.70	40.47	-0.06	7.54
39.557	27.70	40.47	0.04	7.64
39.587	27.70	40.47	0.04	7.64
39.616	27.76	40.54	0.04	7.64
39.646	27.76	40.54	-0.07	7.52
39.676	27.76	40.54	-0.07	7.52
39.706	27.81	40.59	-0.07	7.52
39.735	27.81	40.59	0.02	7.62
39.765	27.81	40.59	0.02	7.62
39.795	27.75	40.52	0.02	7.62
39.825	27.75	40.52	-0.03	7.57
39.854	27.75	40.52	-0.03	7.57
39.884	27.81	40.58	-0.03	7.57
39.914	27.81	40.58	-0.05	7.54
39.944	27.81	40.58	-0.05	7.54
39.973	27.73	40.51	-0.05	7.54
40.003	27.73	40.51	0.04	7.64
40.033	27.73	40.51	0.04	7.64
40.063	27.83	40.60	0.04	7.64
40.092	27.83	40.60	-0.07	7.52
40.122	27.83	40.60	-0.07	7.52
40.152	27.78	40.56	-0.07	7.52
40.182	27.78	40.56	0.02	7.62
40.212	27.78	40.56	0.02	7.62
40.241	27.71	40.48	0.02	7.62
40.271	27.71	40.48	-0.04	7.56
40.301	27.71	40.48	-0.04	7.56
40.331	27.75	40.53	-0.04	7.56
40.360	27.75	40.53	-0.05	7.55
40.390	27.75	40.53	-0.05	7.55
40.420	27.70	40.48	-0.05	7.55
40.450	27.70	40.48	0.05	7.64
40.479	27.70	40.48	0.05	7.64
40.509	27.76	40.54	0.05	7.64
40.539	27.76	40.54	-0.07	7.52
40.569	27.76	40.54	-0.07	7.52
40.598	27.75	40.52	-0.07	7.52
40.628	27.75	40.52	0.03	7.62
40.658	27.75	40.52	0.03	7.62
40.688	27.70	40.48	0.03	7.62
40.717	27.70	40.48	-0.04	7.56
40.747	27.70	40.48	-0.04	7.56
40.777	27.72	40.50	-0.04	7.56
40.807	27.72	40.50	-0.04	7.55
40.837	27.72	40.50	-0.04	7.55
40.866	27.73	40.50	-0.04	7.55
40.896	27.73	40.50	0.04	7.64
40.926	27.73	40.50	0.04	7.64
40.956	27.80	40.58	0.04	7.64
40.985	27.80	40.58	-0.08	7.52
41.015	27.80	40.58	-0.08	7.52
41.045	27.75	40.53	-0.08	7.52
41.075	27.75	40.53	0.02	7.62
41.104	27.75	40.53	0.02	7.62
41.134	27.76	40.54	0.02	7.62
41.164	27.76	40.54	-0.04	7.55
41.194	27.76	40.54	-0.04	7.55
41.223	27.75	40.53	-0.04	7.55
41.253	27.75	40.53	-0.04	7.56
41.283	27.75	40.53	-0.04	7.56
41.313	27.74	40.52	-0.04	7.56
41.342	27.74	40.52	0.04	7.64
41.372	27.74	40.52	0.04	7.64
41.402	27.76	40.53	0.04	7.64
41.432	27.76	40.53	-0.08	7.52
41.462	27.76	40.53	-0.08	7.52
41.491	27.66	40.44	-0.08	7.52
41.521	27.66	40.44	0.03	7.62
41.551	27.66	40.44	0.03	7.62
41.581	27.74	40.52	0.03	7.62
41.610	27.74	40.52	-0.04	7.56
41.640	27.74	40.52	-0.04	7.56
41.670	27.69	40.46	-0.04	7.56
41.700	27.69	40.46	-0.04	7.56
41.729	27.69	40.46	-0.04	7.56
41.759	27.75	40.53	-0.04	7.56
41.789	27.75	40.53	0.04	7.64
41.819	27.75	40.53	0.04	7.64
41.848	27.72	40.50	0.04	7.64
41.878	27.72	40.50	-0.08	7.52
41.908	27.72	40.50	-0.08	7.52
41.938	27.74	40.52	-0.08	7.52
41.967	27.74	40.52	0.03	7.63
41.997	27.74	40.52	0.03	7.63
42.027	27.68	40.45	0.03	7.63
42.057	27.68	40.45	-0.04	7.55
42.087	27.68	40.45	-0.04	7.55
42.116	27.77	40.55	-0.04	7.55
42.146	27.77	40.55	-0.03	7.57
42.176	27.77	40.55	-0.03	7.57
42.206	27.79	40.56	-0.03	7.57
42.235	27.79	40.56	0.04	7.64
42.265	27.79	40.56	0.04	7.64
42.295	27.80	40.58	0.04	7.64
42.325	27.80	40.58	-0.07	7.52
42.354	27.80	40.58	-0.07	7.52
42.384	27.84	40.62	-0.07	7.52
42.414	27.84	40.62	0.03	7.63
42.444	27.84	40.62	0.03	7.63
42.473	27.62	40.40	0.03	7.63
42.503	27.62	40.40	-0.05	7.55
42.533	27.62	40.40	-0.05	7.55
42.563	27.69	40.47	-0.05	7.55
42.592	27.69	40.47	-0.02	7.58
42.622	27.69	40.47	-0.02	7.58
42.652	27.67	40.45	-0.02	7.58
42.682	27.67	40.45	0.04	7.64
42.712	27.67	40.45	0.04	7.64
42.741	27.77	40.55	0.04	7.64
42.771	27.77	40.55	-0.08	7.52
42.801	27.77	40.55	-0.08	7.52
42.831	27.71	40.49	-0.08	7.52
42.860	27.71	40.49	0.03	7.63
42.890	27.71	40.49	0.03	7.63
42.920	27.80	40.58	0.03	7.63
42.950	27.80	40.58	-0.05	7.54
42.979	27.80	40.58	-0.05	7.54
43.009	27.75	40.53	-0.05	7.54
43.039	27.75	40.53	-0.01	7.58
43.069	27.75	40.53	-0.01	7.58
43.098	27.70	40.48	-0.01	7.58
43.128	27.70	40.48	0.04	7.63
43.158	27.70	40.48	0.04	7.63
43.188	27.69	40.46	0.04	7.63
43.218	27.69	40.46	-0.08	7.52
43.247	27.69	40.46	-0.08	7.52
43.277	27.70	40.47	-0.08	7.52
43.307	27.70	40.47	0.04	7.63
43.337	27.70	40.47	0.04	7.63
43.366	27.61	40.39	0.04	7.63
43.396	27.61	40.39	-0.05	7.54
43.426	27.61	40.39	-0.05	7.54
43.456	27.63	40.40	-0.05	7.54
43.485	27.63	40.40	-0.01	7.59
43.515	27.63	40.40	-0.01	7.59
43.545	27.61	40.38	-0.01	7.59
43.575	27.61	40.38	0.04	7.63
43.604	27.61	40.38	0.04	7.63
43.634	27.80	40.58	0.04	7.63
43.664	27.80	40.58	-0.08	7.52
43.694	27.80	40.58	-0.08	7.52
43.723	27.75	40.53	-0.08	7.52
43.753	27.75	40.53	0.04	7.63
43.783	27.75	40.53	0.04	7.63
43.813	27.77	40.55	0.04	7.63
43.842	27.77	40.55	-0.05	7.55
43.872	27.77	40.55	-0.05	7.55
43.902	27.78	40.55	-0.05	7.55
43.932	27.78	40.55	-0.00	7.59
43.962	27.78	40.55	-0.00	7.59
43.991	27.61	40.39	-0.00	7.59
44.021	27.61	40.39	0.03	7.63
44.051	27.61	40.39	0.03	7.63
44.081	27.73	40.51	0.03	7.63
44.110	27.73	40.51	-0.08	7.52
44.140	27.73	40.51	-0.08	7.52
44.170	27.66	40.44	-0.08	7.52
44.200	27.66	40.44	0.05	7.64
44.229	27.66	40.44	0.05	7.64
44.259	27.68	40.45	0.05	7.64
44.289	27.68	40.45	-0.05	7.54
44.319	27.68	40.45	-0.05	7.54
44.348	27.73	40.51	-0.05	7.54
44.378	27.73	40.51	-0.00	7.60
44.408	27.73	40.51	-0.00	7.60
44.438	27.60	40.38	-0.00	7.60
44.467	27.60	40.38	0.02	7.62
44.497	27.60	40.38	0.02	7.62
44.527	27.81	40.59	0.02	7.62
44.557	27.81	40.59	-0.08	7.52
44.586	27.81	40.59	-0.08	7.52
44.616	27.75	40.53	-0.08	7.52
44.646	27.75	40.53	0.04	7.64
44.676	27.75	40.53	0.04	7.64
44.706	27.76	40.53	0.04	7.64
44.735	27.76	40.53	-0.05	7.54
44.765	27.76	40.53	-0.05	7.54
44.795	27.80	40.58	-0.05	7.54
44.825	27.80	40.58	0.01	7.60
44.854	27.80	40.58	0.01	7.60
44.884	27.73	40.51	0.01	7.60
44.914	27.73	40.51	0.01	7.61
44.944	27.73	40.51	0.01	7.61
44.973	27.70	40.48	0.01	7.61
45.003	27.70	40.48	-0.08	7.52
45.033	27.70	40.48	-0.08	7.52
45.063	27.80	40.57	-0.08	7.52
45.092	27.80	40.57	0.04	7.64
45.122	27.80	40.57	0.04	7.64
45.152	27.69	40.47	0.04	7.64
45.182	27.69	40.47	-0.06	7.54
45.212	27.69	40.47	-0.06	7.54
45.241	27.78	40.55	-0.06	7.54
45.271	27.78	40.55	0.01	7.61
45.301	27.78	40.55	0.01	7.61
45.331	27.69	40.46	0.01	7.61
45.360	27.69	40.46	0.01	7.61
45.390	27.69	40.46	0.01	7.61
45.420	27.81	40.59	0.01	7.61
45.450	27.81	40.59	-0.08	7.52
45.479	27.81	40.59	-0.08	7.52
45.509	27.74	40.52	-0.08	7.52
45.539	27.74	40.52	0.04	7.64
45.569	27.74	40.52	0.04	7.64
45.598	27.71	40.49	0.04	7.64
45.628	27.71	40.49	-0.06	7.54
45.658	27.71	40.49	-0.06	7.54
45.688	27.69	40.47	-0.06	7.54
45.717	27.69	40.47	0.01	7.61
45.747	27.69	40.47	0.01	7.61
45.777	27.58	40.35	0.01	7.61
45.807	27.58	40.35	0.00	7.60
45.837	27.58	40.35	0.00	7.60
45.866	27.68	40.45	0.00	7.60
45.896	27.68	40.45	-0.07	7.52
45.926	27.68	40.45	-0.07	7.52
45.956	27.64	40.41	-0.07	7.52
45.985	27.64	40.41	0.04	7.64
46.015	27.64	40.41	0.04	7.64
46.045	27.53	40.31	0.04	7.64
46.075	27.53	40.31	-0.06	7.53
46.104	27.53	40.31	-0.06	7.53
46.134	27.70	40.47	-0.06	7.53
46.164	27.70	40.47	0.01	7.61
46.194	27.70	40.47	0.01	7.61
46.223	27.65	40.43	0.01	7.61
46.253	27.65	40.43	-0.00	7.59
46.283	27.65	40.43	-0.00	7.59
46.313	27.78	40.55	-0.00	7.59
46.342	27.78	40.55	-0.07	7.52
46.372	27.78	40.55	-0.07	7.52
46.402	27.76	40.54	-0.07	7.52
46.432	27.76	40.54	0.04	7.64
46.462	27.76	40.54	0.04	7.64
46.491	27.68	40.46	0.04	7.64
46.521	27.68	40.46	-0.06	7.53
46.551	27.68	40.46	-0.06	7.53
46.581	27.78	40.56	-0.06	7.53
46.610	27.78	40.56	0.02	7.61
46.640	27.78	40.56	0.02	7.61
46.670	27.67	40.44	0.02	7.61
46.700	27.67	40.44	-0.02	7.58
46.729	27.67	40.44	-0.02	7.58
46.759	27.70	40.48	-0.02	7.58
46.789	27.70	40.48	-0.07	7.53
46.819	27.70	40.48	-0.07	7.53
46.848	27.63	40.41	-0.07	7.53
46.878	27.63	40.41	0.05	7.64
46.908	27.63	40.41	0.05	7.64
46.938	27.61	40.38	0.05	7.64
46.967	27.61	40.38	-0.07	7.53
46.997	27.61	40.38	-0.07	7.53
47.027	27.66	40.44	-0.07	7.53
47.057	27.66	40.44	0.02	7.62
47.087	27.66	40.44	0.02	7.62
47.116	27.56	40.34	0.02	7.62
47.146	27.56	40.34	-0.02	7.58
47.176	27.56	40.34	-0.02	7.58
47.206	27.81	40.58	-0.02	7.58
47.235	27.81	40.58	-0.06	7.53
47.265	27.81	40.58	-0.06	7.53
47.295	27.72	40.50	-0.06	7.53
47.325	27.72	40.50	0.05	7.64
47.354	27.72	40.50	0.05	7.64
47.384	27.66	40.44	0.05	7.64
47.414	27.66	40.44	-0.07	7.52
47.444	27.66	40.44	-0.07	7.52
47.473	27.76	40.54	-0.07	7.52
47.503	27.76	40.54	0.02	7.62
47.533	27.76	40.54	0.02	7.62
47.563	27.56	40.34	0.02	7.62
47.592	27.56	40.34	-0.03	7.57
47.622	27.56	40.34	-0.03	7.57
47.652	27.63	40.41	-0.03	7.57
47.682	27.63	40.41	-0.06	7.54
47.712	27.63	40.41	-0.06	7.54
47.741	27.63	40.40	-0.06	7.54
47.771	27.63	40.40	0.05	7.64
47.801	27.63	40.40	0.05	7.64
47.831	27.64	40.42	0.05	7.64
47.860	27.64	40.42	-0.08	7.52
47.890	27.64	40.42	-0.08	7.52
47.920	27.57	40.34	-0.08	7.52
47.950	27.57	40.34	0.02	7.62
47.979	27.57	40.34	0.02	7.62
48.009	27.67	40.45	0.02	7.62
48.039	27.67	40.45	-0.04	7.56
48.069	27.67	40.45	-0.04	7.56
48.098	27.76	40.53	-0.04	7.56
48.128	27.76	40.53	-0.05	7.55
48.158	27.76	40.53	-0.05	7.55
48.188	27.70	40.48	-0.05	7.55
48.218	27.70	40.48	0.04	7.64
48.247	27.70	40.48	0.04	7.64
48.277	27.67	40.45	0.04	7.64
48.307	27.67	40.45	-0.08	7.52
48.337	27.67	40.45	-0.08	7.52
48.366	27.75	40.53	-0.08	7.52
48.396	27.75	40.53	0.03	7.63
48.426	27.75	40.53	0.03	7.63
48.456	27.62	40.39	0.03	7.63
48.485	27.62	40.39	-0.04	7.55
48.515	27.62	40.39	-0.04	7.55
48.545	27.73	40.50	-0.04	7.55
48.575	27.73	40.50	-0.04	7.56
48.604	27.73	40.50	-0.04	7.56
48.634	27.65	40.42	-0.04	7.56
48.664	27.65	40.42	0.04	7.64
48.694	27.65	40.42	0.04	7.64
48.723	27.59	40.37	0.04	7.64
48.753	27.59	40.37	-0.08	7.52
48.783	27.59	40.37	-0.08	7.52
48.813	27.67	40.44	-0.08	7.52
48.843	27.67	40.44	0.03	7.63
48.872	27.67	40.44	0.03	7.63
48.902	27.63	40.41	0.03	7.63
48.932	27.63	40.41	-0.04	7.55
48.962	27.63	40.41	-0.04	7.55
48.991	27.76	40.54	-0.04	7.55
49.021	27.76	40.54	-0.03	7.56
49.051	27.76	40.54	-0.03	7.56
49.081	27.77	40.55	-0.03	7.56
49.110	27.77	40.55	0.04	7.64
49.140	27.77	40.55	0.04	7.64
49.170	27.71	40.49	0.04	7.64
49.200	27.71	40.49	-0.07	7.53
49.229	27.71	40.49	-0.07	7.53
49.259	27.74	40.52	-0.07	7.53
49.289	27.74	40.52	0.03	7.63
49.319	27.74	40.52	0.03	7.63
49.349	27.62	40.40	0.03	7.63
49.378	27.62	40.40	-0.05	7.55
49.408	27.62	40.40	-0.05	7.55
49.438	27.68	40.45	-0.05	7.55
49.468	27.68	40.45	-0.02	7.58
49.497	27.68	40.45	-0.02	7.58
49.527	27.69	40.47	-0.02	7.58
49.557	27.69	40.47	0.04	7.64
49.587	27.69	40.47	0.04	7.64
49.616	27.71	40.49	0.04	7.64
49.646	27.71	40.49	-0.08	7.52
49.676	27.71	40.49	-0.08	7.52
49.706	27.71	40.49	-0.08	7.52
49.735	27.71	40.49	0.03	7.63
49.765	27.71	40.49	0.03	7.63
49.795	27.62	40.39	0.03	7.63
49.825	27.62	40.39	-0.05	7.55
49.854	27.62	40.39	-0.05	7.55
49.884	27.79	40.56	-0.05	7.55
49.914	27.79	40.56	-0.01	7.59
49.944	27.79	40.56	-0.01	7.59
49.974	27.68	40.45	-0.01	7.59
50.003	27.68	40.45	0.03	7.63
50.033	27.68	40.45	0.03	7.63
50.063	27.65	40.42	0.03	7.63
50.093	27.65	40.42	-0.07	7.52
50.122	27.65	40.42	-0.07	7.52
50.152	27.81	40.59	-0.07	7.52
50.182	27.81	40.59	0.04	7.63
50.212	27.81	40.59	0.04	7.63
50.241	27.60	40.38	0.04	7.63
50.271	27.60	40.38	-0.05	7.54
50.301	27.60	40.38	-0.05	7.54
50.331	27.74	40.51	-0.05	7.54
50.360	27.74	40.51	-0.00	7.59
50.390	27.74	40.51	-0.00	7.59
50.420	27.75	40.52	-0.00	7.59
50.450	27.75	40.52	0.03	7.62
50.479	27.75	40.52	0.03	7.62
50.509	27.64	40.41	0.03	7.62
50.539	27.64	40.41	-0.08	7.52
50.569	27.64	40.41	-0.08	7.52
50.599	27.64	40.41	-0.08	7.52
50.628	27.64	40.41	0.04	7.64
50.658	27.64	40.41	0.04	7.64
50.688	27.60	40.38	0.04	7.64
50.718	27.60	40.38	-0.06	7.54
50.747	27.60	40.38	-0.06	7.54
50.777	27.78	40.56	-0.06	7.54
50.807	27.78	40.56	-0.00	7.60
50.837	27.78	40.56	-0.00	7.60
50.866	27.77	40.54	-0.00	7.60
50.896	27.77	40.54	0.02	7.62
50.926	27.77	40.54	0.02	7.62
50.956	27.68	40.45	0.02	7.62
50.985	27.68	40.45	-0.07	7.52
51.015	27.68	40.45	-0.07	7.52
51.045	27.69	40.47	-0.07	7.52
51.075	27.69	40.47	0.05	7.64
51.104	27.69	40.47	0.05	7.64
51.134	27.72	40.50	0.05	7.64
51.164	27.72	40.50	-0.06	7.54
51.194	27.72	40.50	-0.06	7.54
51.223	27.78	40.55	-0.06	7.54
51.253	27.78	40.55	0.01	7.60
51.283	27.78	40.55	0.01	7.60
51.313	27.69	40.47	0.01	7.60
51.342	27.69	40.47	0.01	7.60
51.372	27.69	40.47	0.01	7.60
51.402	27.55	40.33	0.01	7.60
51.432	27.55	40.33	-0.08	7.52
51.462	27.55	40.33	-0.08	7.52
51.491	27.63	40.40	-0.08	7.52
51.521	27.63	40.40	0.05	7.64
51.551	27.63	40.40	0.05	7.64
51.581	27.53	40.31	0.05	7.64
51.610	27.53	40.31	-0.06	7.53
51.640	27.53	40.31	-0.06	7.53
51.670	27.87	40.64	-0.06	7.53
51.700	27.87	40.64	0.01	7.61
51.729	27.87	40.64	0.01	7.61
51.759	27.64	40.41	0.01	7.61
51.789	27.64	40.41	0.00	7.60
51.819	27.64	40.41	0.00	7.60
51.848	27.69	40.47	0.00	7.60
51.878	27.69	40.47	-0.07	7.52
51.908	27.69	40.47	-0.07	7.52
51.938	27.65	40.43	-0.07	7.52
51.967	27.65	40.43	0.05	7.64
51.997	27.65	40.43	0.05	7.64
52.027	27.66	40.44	0.05	7.64
52.057	27.66	40.44	-0.06	7.53
52.087	27.66	40.44	-0.06	7.53
52.116	27.71	40.48	-0.06	7.53
52.146	27.71	40.48	0.01	7.61
52.176	27.71	40.48	0.01	7.61
52.206	27.62	40.40	0.01	7.61
52.235	27.62	40.40	-0.01	7.58
52.265	27.62	40.40	-0.01	7.58
52.295	27.61	40.39	-0.01	7.58
52.325	27.61	40.39	-0.07	7.53
52.354	27.61	40.39	-0.07	7.53
52.384	27.53	40.31	-0.07	7.53
52.414	27.53	40.31	0.04	7.64
52.444	27.53	40.31	0.04	7.64
52.473	27.64	40.41	0.04	7.64
52.503	27.64	40.41	-0.06	7.53
52.533	27.64	40.41	-0.06	7.53
52.563	27.83	40.61	-0.06	7.53
52.592	27.83	40.61	0.02	7.62
52.622	27.83	40.61	0.02	7.62
52.652	27.81	40.59	0.02	7.62
52.682	27.81	40.59	-0.02	7.58
52.712	27.81	40.59	-0.02	7.58
52.741	27.71	40.49	-0.02	7.58
52.771	27.71	40.49	-0.07	7.53
52.801	27.71	40.49	-0.07	7.53
52.831	27.65	40.42	-0.07	7.53
52.860	27.65	40.42	0.05	7.64
52.890	27.65	40.42	0.05	7.64
52.920	27.61	40.39	0.05	7.64
52.950	27.61	40.39	-0.07	7.52
52.979	27.61	40.39	-0.07	7.52
53.009	27.72	40.50	-0.07	7.52
53.039	27.72	40.50	0.02	7.62
53.069	27.72	40.50	0.02	7.62
53.098	27.70	40.48	0.02	7.62
53.128	27.70	40.48	-0.03	7.57
53.158	27.70	40.48	-0.03	7.57
53.188	27.69	40.47	-0.03	7.57
53.218	27.69	40.47	-0.06	7.54
53.247	27.69	40.47	-0.06	7.54
53.277	27.77	40.54	-0.06	7.54
53.307	27.77	40.54	0.04	7.64
53.337	27.77	40.54	0.04	7.64
53.366	27.61	40.39	0.04	7.64
53.396	27.61	40.39	-0.08	7.52
53.426	27.61	40.39	-0.08	7.52
53.456	27.85	40.62	-0.08	7.52
53.485	27.85	40.62	0.02	7.62
53.515	27.85	40.62	0.02	7.62
53.545	27.68	40.45	0.02	7.62
53.575	27.68	40.45	-0.03	7.57
53.604	27.68	40.45	-0.03	7.57
53.634	27.68	40.45	-0.03	7.57
53.664	27.68	40.45	-0.05	7.55
53.694	27.68	40.45	-0.05	7.55
53.723	27.74	40.52	-0.05	7.55
53.753	27.74	40.52	0.04	7.64
53.783	27.74	40.52	0.04	7.64
53.813	27.62	40.40	0.04	7.64
53.843	27.62	40.40	-0.08	7.52
53.872	27.62	40.40	-0.08	7.52
53.902	27.68	40.46	-0.08	7.52
53.932	27.68	40.46	0.02	7.62
53.962	27.68	40.46	0.02	7.62
53.991	27.75	40.52	0.02	7.62
54.021	27.75	40.52	-0.04	7.56
54.051	27.75	40.52	-0.04	7.56
54.081	27.58	40.36	-0.04	7.56
54.110	27.58	40.36	-0.04	7.55
54.140	27.58	40.36	-0.04	7.55
54.170	27.64	40.41	-0.04	7.55
54.200	27.64	40.41	0.04	7.64
54.229	27.64	40.41	0.04	7.64
54.259	27.60	40.38	0.04	7.64
54.289	27.60	40.38	-0.08	7.52
54.319	27.60	40.38	-0.08	7.52
54.349	27.92	40.69	-0.08	7.52
54.378	27.92	40.69	0.03	7.62
54.408	27.92	40.69	0.03	7.62
54.438	27.73	40.51	0.03	7.62
54.468	27.73	40.51	-0.04	7.56
54.497	27.73	40.51	-0.04	7.56
54.527	27.72	40.49	-0.04	7.56
54.557	27.72	40.49	-0.03	7.57
54.587	27.72	40.49	-0.03	7.57
54.616	27.65	40.43	-0.03	7.57
54.646	27.65	40.43	0.04	7.64
54.676	27.65	40.43	0.04	7.64
54.706	27.70	40.47	0.04	7.64
54.735	27.70	40.47	-0.08	7.52
54.765	27.70	40.47	-0.08	7.52
54.795	27.71	40.48	-0.08	7.52
54.825	27.71	40.48	0.03	7.63
54.854	27.71	40.48	0.03	7.63
54.884	27.73	40.51	0.03	7.63
54.914	27.73	40.51	-0.04	7.55
54.944	27.73	40.51	-0.04	7.55
54.974	27.73	40.51	-0.04	7.55
55.003	27.73	40.51	-0.02	7.57
55.033	27.73	40.51	-0.02	7.57
55.063	27.74	40.52	-0.02	7.57
55.093	27.74	40.52	0.04	7.64
55.122	27.74	40.52	0.04	7.64
55.152	27.80	40.58	0.04	7.64
55.182	27.80	40.58	-0.08	7.52
55.212	27.80	40.58	-0.08	7.52
55.241	27.85	40.63	-0.08	7.52
55.271	27.85	40.63	0.04	7.63
55.301	27.85	40.63	0.04	7.63
55.331	27.75	40.53	0.04	7.63
55.360	27.75	40.53	-0.05	7.55
55.390	27.75	40.53	-0.05	7.55
55.420	27.73	40.51	-0.05	7.55
55.450	27.73	40.51	-0.01	7.58
55.479	27.73	40.51	-0.01	7.58
55.509	27.63	40.40	-0.01	7.58
55.539	27.63	40.40	0.04	7.63
55.569	27.63	40.40	0.04	7.63
55.599	27.76	40.53	0.04	7.63
55.628	27.76	40.53	-0.08	7.52
55.658	27.76	40.53	-0.08	7.52
55.688	27.65	40.43	-0.08	7.52
55.718	27.65	40.43	0.04	7.63
55.747	27.65	40.43	0.04	7.63
55.777	27.71	40.49	0.04	7.63
55.807	27.71	40.49	-0.05	7.55
55.837	27.71	40.49	-0.05	7.55
55.866	27.67	40.44	-0.05	7.55
55.896	27.67	40.44	-0.00	7.59
55.926	27.67	40.44	-0.00	7.59
55.956	27.63	40.40	-0.00	7.59
55.985	27.63	40.40	0.02	7.62
56.015	27.63	40.40	0.02	7.62
56.045	27.65	40.42	0.02	7.62
56.075	27.65	40.42	-0.08	7.52
56.104	27.65	40.42	-0.08	7.52
56.134	27.81	40.59	-0.08	7.52
56.164	27.81	40.59	0.05	7.64
56.194	27.81	40.59	0.05	7.64
56.224	27.79	40.56	0.05	7.64
56.253	27.79	40.56	-0.05	7.54
56.283	27.79	40.56	-0.05	7.54
56.313	27.69	40.47	-0.05	7.54
56.343	27.69	40.47	-0.00	7.60
56.372	27.69	40.47	-0.00	7.60
56.402	27.68	40.45	-0.00	7.60
56.432	27.68	40.45	0.02	7.62
56.462	27.68	40.45	0.02	7.62
56.491	27.73	40.51	0.02	7.62
56.521	27.73	40.51	-0.08	7.52
56.551	27.73	40.51	-0.08	7.52
56.581	27.66	40.44	-0.08	7.52
56.610	27.66	40.44	0.04	7.64
56.640	27.66	40.44	0.04	7.64
56.670	27.80	40.58	0.04	7.64
56.700	27.80	40.58	-0.05	7.54
56.729	27.80	40.58	-0.05	7.54
56.759	27.66	40.43	-0.05	7.54
56.789	27.66	40.43	0.01	7.60
56.819	27.66	40.43	0.01	7.60
56.848	27.68	40.45	0.01	7.60
56.878	27.68	40.45	0.01	7.60
56.908	27.68	40.45	0.01	7.60
56.938	27.69	40.47	0.01	7.60
56.968	27.69	40.47	-0.08	7.52
56.997	27.69	40.47	-0.08	7.52
57.027	27.74	40.52	-0.08	7.52
57.057	27.74	40.52	0.05	7.64
57.087	27.74	40.52	0.05	7.64
57.116	27.75	40.52	0.05	7.64
57.146	27.75	40.52	-0.06	7.54
57.176	27.75	40.52	-0.06	7.54
57.206	27.63	40.41	-0.06	7.54
57.235	27.63	40.41	0.01	7.61
57.265	27.63	40.41	0.01	7.61
57.295	27.67	40.45	0.01	7.61
57.325	27.67	40.45	0.00	7.60
57.354	27.67	40.45	0.00	7.60
57.384	27.69	40.46	0.00	7.60
57.414	27.69	40.46	-0.08	7.52
57.444	27.69	40.46	-0.08	7.52
57.473	27.66	40.44	-0.08	7.52
57.503	27.66	40.44	0.04	7.64
57.533	27.66	40.44	0.04	7.64
57.563	27.76	40.53	0.04	7.64
57.593	27.76	40.53	-0.06	7.54
57.622	27.76	40.53	-0.06	7.54
57.652	27.69	40.47	-0.06	7.54
57.682	27.69	40.47	0.02	7.61
57.712	27.69	40.47	0.02	7.61
57.741	27.58	40.36	0.02	7.61
57.771	27.58	40.36	-0.01	7.59
57.801	27.58	40.36	-0.01	7.59
57.831	27.61	40.38	-0.01	7.59
57.860	27.61	40.38	-0.07	7.52
57.890	27.61	40.38	-0.07	7.52
57.920	27.70	40.47	-0.07	7.52
57.950	27.70	40.47	0.04	7.64
57.979	27.70	40.47	0.04	7.64
58.009	27.72	40.50	0.04	7.64
58.039	27.72	40.50	-0.07	7.53
58.069	27.72	40.50	-0.07	7.53
58.099	27.63	40.40	-0.07	7.53
58.128	27.63	40.40	0.02	7.61
58.158	27.63	40.40	0.02	7.61
58.188	27.69	40.47	0.02	7.61
58.218	27.69	40.47	-0.01	7.58
58.247	27.69	40.47	-0.01	7.58
58.277	27.60	40.37	-0.01	7.58
58.307	27.60	40.37	-0.07	7.53
58.337	27.60	40.37	-0.07	7.53
58.366	27.57	40.35	-0.07	7.53
58.396	27.57	40.35	0.04	7.64
58.426	27.57	40.35	0.04	7.64
58.456	27.72	40.50	0.04	7.64
58.485	27.72	40.50	-0.07	7.53
58.515	27.72	40.50	-0.07	7.53
58.545	27.67	40.45	-0.07	7.53
58.575	27.67	40.45	0.02	7.61
58.604	27.67	40.45	0.02	7.61
58.634	27.68	40.46	0.02	7.61
58.664	27.68	40.46	-0.02	7.58
58.694	27.68	40.46	-0.02	7.58
58.724	27.72	40.50	-0.02	7.58
58.753	27.72	40.50	-0.06	7.53
58.783	27.72	40.50	-0.06	7.53
58.813	27.66	40.44	-0.06	7.53
58.843	27.66	40.44	0.05	7.64
58.872	27.66	40.44	0.05	7.64
58.902	27.78	40.56	0.05	7.64
58.932	27.78	40.56	-0.07	7.53
58.962	27.78	40.56	-0.07	7.53
58.991	27.73	40.50	-0.07	7.53
59.021	27.73	40.50	0.02	7.61
59.051	27.73	40.50	0.02	7.61
59.081	27.70	40.48	0.02	7.61
59.110	27.70	40.48	-0.03	7.57
59.140	27.70	40.48	-0.03	7.57
59.170	27.70	40.48	-0.03	7.57
59.200	27.70	40.48	-0.06	7.54
59.229	27.70	40.48	-0.06	7.54
59.259	27.60	40.37	-0.06	7.54
59.289	27.60	40.37	0.05	7.64
59.319	27.60	40.37	0.05	7.64
59.349	27.79	40.57	0.05	7.64
59.378	27.79	40.57	-0.07	7.53
59.408	27.79	40.57	-0.07	7.53
59.438	27.65	40.42	-0.07	7.53
59.468	27.65	40.42	0.02	7.62
59.497	27.65	40.42	0.02	7.62
59.527	27.66	40.43	0.02	7.62
59.557	27.66	40.43	-0.03	7.57
59.587	27.66	40.43	-0.03	7.57
59.616	27.67	40.44	-0.03	7.57
59.646	27.67	40.44	-0.05	7.54
59.676	27.67	40.44	-0.05	7.54
59.706	27.71	40.49	-0.05	7.54
59.735	27.71	40.49	0.04	7.64
59.765	27.71	40.49	0.04	7.64
59.795	27.79	40.57	0.04	7.64
59.825	27.79	40.57	-0.07	7.52
59.854	27.79	40.57	-0.07	7.52
59.884	27.69	40.47	-0.07	7.52
59.914	27.69	40.47	0.02	7.62
59.944	27.69	40.47	0.02	7.62
59.974	27.67	40.45	0.02	7.62
60.003	27.67	40.45	-0.04	7.56
60.033	27.67	40.45	-0.04	7.56
60.063	27.75	40.53	-0.04	7.56
60.093	27.75	40.53	-0.05	7.55
60.122	27.75	40.53	-0.05	7.55
60.152	27.50	40.28	-0.05	7.55
60.182	27.50	40.28	0.05	7.64
60.212	27.50	40.28	0.05	7.64
60.241	27.69	40.47	0.05	7.64
60.271	27.69	40.47	-0.07	7.52
60.301	27.69	40.47	-0.07	7.52
60.331	27.68	40.45	-0.07	7.52
60.360	27.68	40.45	0.03	7.62
60.390	27.68	40.45	0.03	7.62
60.420	27.66	40.44	0.03	7.62
60.450	27.66	40.44	-0.04	7.56
60.479	27.66	40.44	-0.04	7.56
60.509	27.56	40.33	-0.04	7.56
60.539	27.56	40.33	-0.04	7.56
60.569	27.56	40.33	-0.04	7.56
60.599	27.51	40.29	-0.04	7.56
60.628	27.51	40.29	0.04	7.64
60.658	27.51	40.29	0.04	7.64
60.688	27.72	40.50	0.04	7.64
60.718	27.72	40.50	-0.08	7.52
60.747	27.72	40.50	-0.08	7.52
60.777	27.62	40.40	-0.08	7.52
60.807	27.62	40.40	0.02	7.62
60.837	27.62	40.40	0.02	7.62
60.866	27.62	40.39	0.02	7.62
60.896	27.62	40.39	-0.04	7.55
60.926	27.62	40.39	-0.04	7.55
60.956	27.59	40.37	-0.04	7.55
60.985	27.59	40.37	-0.04	7.56
61.015	27.59	40.37	-0.04	7.56
61.045	27.54	40.31	-0.04	7.56
61.075	27.54	40.31	0.05	7.64
61.105	27.54	40.31	0.05	7.64
61.134	27.59	40.37	0.05	7.64
61.164	27.59	40.37	-0.08	7.52
61.194	27.59	40.37	-0.08	7.52
61.224	27.61	40.38	-0.08	7.52
61.253	27.61	40.38	0.03	7.63
61.283	27.61	40.38	0.03	7.63
61.313	27.61	40.39	0.03	7.63
61.343	27.61	40.39	-0.04	7.55
61.372	27.61	40.39	-0.04	7.55
61.402	27.61	40.38	-0.04	7.55
61.432	27.61	40.38	-0.03	7.56
61.462	27.61	40.38	-0.03	7.56
61.491	27.39	40.16	-0.03	7.56
61.521	27.39	40.16	0.04	7.64
61.551	27.39	40.16	0.04	7.64
61.581	27.62	40.40	0.04	7.64
61.610	27.62	40.40	-0.08	7.52
61.640	27.62	40.40	-0.08	7.52
61.670	27.59	40.36	-0.08	7.52
61.700	27.59	40.36	0.03	7.63
61.730	27.59	40.36	0.03	7.63
61.759	27.55	40.32	0.03	7.63
61.789	27.55	40.32	-0.04	7.55
61.819	27.55	40.32	-0.04	7.55
61.849	27.63	40.40	-0.04	7.55
61.878	27.63	40.40	-0.03	7.57
61.908	27.63	40.40	-0.03	7.57
61.938	27.46	40.24	-0.03	7.57
61.968	27.46	40.24	0.04	7.64
61.997	27.46	40.24	0.04	7.64
62.027	27.65	40.43	0.04	7.64
62.057	27.65	40.43	-0.07	7.52
62.087	27.65	40.43	-0.07	7.52
62.116	27.63	40.41	-0.07	7.52
62.146	27.63	40.41	0.03	7.62
62.176	27.63	40.41	0.03	7.62
62.206	27.57	40.35	0.03	7.62
62.235	27.57	40.35	-0.05	7.55
62.265	27.57	40.35	-0.05	7.55
62.295	27.50	40.28	-0.05	7.55
62.325	27.50	40.28	-0.03	7.57
62.355	27.50	40.28	-0.03	7.57
62.384	27.43	40.20	-0.03	7.57
62.414	27.43	40.20	0.04	7.64
62.444	27.43	40.20	0.04	7.64
62.474	27.68	40.45	0.04	7.64
62.503	27.68	40.45	-0.08	7.52
62.533	27.68	40.45	-0.08	7.52
62.563	27.61	40.38	-0.08	7.52
62.593	27.61	40.38	0.03	7.63
62.622	27.61	40.38	0.03	7.63
62.652	27.61	40.38	0.03	7.63
62.682	27.61	40.38	-0.05	7.55
62.712	27.61	40.38	-0.05	7.55
62.741	27.57	40.34	-0.05	7.55
62.771	27.57	40.34	-0.03	7.57
62.801	27.57	40.34	-0.03	7.57
62.831	27.54	40.32	-0.03	7.57
62.860	27.54	40.32	0.04	7.64
62.890	27.54	40.32	0.04	7.64
62.920	27.63	40.40	0.04	7.64
62.950	27.63	40.40	-0.08	7.52
62.980	27.63	40.40	-0.08	7.52
63.009	27.63	40.40	-0.08	7.52
63.039	27.63	40.40	0.03	7.63
63.069	27.63	40.40	0.03	7.63
63.099	27.53	40.31	0.03	7.63
63.128	27.53	40.31	-0.05	7.55
63.158	27.53	40.31	-0.05	7.55
63.188	27.54	40.32	-0.05	7.55
63.218	27.54	40.32	-0.02	7.58
63.247	27.54	40.32	-0.02	7.58
63.277	27.56	40.33	-0.02	7.58
63.307	27.56	40.33	0.04	7.64
63.337	27.56	40.33	0.04	7.64
63.366	27.64	40.42	0.04	7.64
63.396	27.64	40.42	-0.08	7.52
63.426	27.64	40.42	-0.08	7.52
63.456	27.55	40.32	-0.08	7.52
63.486	27.55	40.32	0.04	7.63
63.515	27.55	40.32	0.04	7.63
63.545	27.56	40.34	0.04	7.63
63.575	27.56	40.34	-0.05	7.54
63.605	27.56	40.34	-0.05	7.54
63.634	27.52	40.30	-0.05	7.54
63.664	27.52	40.30	-0.02	7.58
63.694	27.52	40.30	-0.02	7.58
63.724	27.63	40.40	-0.02	7.58
63.753	27.63	40.40	0.04	7.63
63.783	27.63	40.40	0.04	7.63
63.813	27.59	40.37	0.04	7.63
63.843	27.59	40.37	-0.08	7.52
63.872	27.59	40.37	-0.08	7.52
63.902	27.66	40.44	-0.08	7.52
63.932	27.66	40.44	0.04	7.64
63.962	27.66	40.44	0.04	7.64
63.991	27.54	40.32	0.04	7.64
64.021	27.54	40.32	-0.05	7.55
64.051	27.54	40.32	-0.05	7.55
64.081	27.50	40.28	-0.05	7.55
64.111	27.50	40.28	-0.01	7.59
64.140	27.50	40.28	-0.01	7.59
64.170	27.57	40.35	-0.01	7.59
64.200	27.57	40.35	0.04	7.63
64.230	27.57	40.35	0.04	7.63
64.259	27.66	40.44	0.04	7.63
64.289	27.66	40.44	-0.08	7.52
64.319	27.66	40.44	-0.08	7.52
64.349	27.60	40.37	-0.08	7.52
64.378	27.60	40.37	0.04	7.64
64.408	27.60	40.37	0.04	7.64
64.438	27.56	40.34	0.04	7.64
64.468	27.56	40.34	-0.05	7.54
64.497	27.56	40.34	-0.05	7.54
64.527	27.58	40.36	-0.05	7.54
64.557	27.58	40.36	-0.01	7.59
64.587	27.58	40.36	-0.01	7.59
64.616	27.62	40.39	-0.01	7.59
64.646	27.62	40.39	0.03	7.63
64.676	27.62	40.39	0.03	7.63
64.706	27.61	40.39	0.03	7.63
64.735	27.61	40.39	-0.08	7.52
64.765	27.61	40.39	-0.08	7.52
64.795	27.59	40.37	-0.08	7.52
64.825	27.59	40.37	0.04	7.64
64.855	27.59	40.37	0.04	7.64
64.884	27.52	40.30	0.04	7.64
64.914	27.52	40.30	-0.05	7.55
64.944	27.52	40.30	-0.05	7.55
64.974	27.50	40.27	-0.05	7.55
65.003	27.50	40.27	-0.00	7.59
65.033	27.50	40.27	-0.00	7.59
65.063	27.59	40.36	-0.00	7.59
65.093	27.59	40.36	0.03	7.63
65.122	27.59	40.36	0.03	7.63
65.152	27.71	40.49	0.03	7.63
65.182	27.71	40.49	-0.08	7.52
65.212	27.71	40.49	-0.08	7.52
65.241	27.65	40.42	-0.08	7.52
65.271	27.65	40.42	0.04	7.64
65.301	27.65	40.42	0.04	7.64
65.331	27.64	40.41	0.04	7.64
65.361	27.64	40.41	-0.05	7.55
65.390	27.64	40.41	-0.05	7.55
65.420	27.67	40.45	-0.05	7.55
65.450	27.67	40.45	-0.00	7.59
65.480	27.67	40.45	-0.00	7.59
65.509	27.64	40.42	-0.00	7.59
65.539	27.64	40.42	0.02	7.62
65.569	27.64	40.42	0.02	7.62
65.599	27.57	40.35	0.02	7.62
65.628	27.57	40.35	-0.07	7.52
65.658	27.57	40.35	-0.07	7.52
65.688	27.64	40.42	-0.07	7.52
65.718	27.64	40.42	0.04	7.63
65.747	27.64	40.42	0.04	7.63
65.777	27.63	40.40	0.04	7.63
65.807	27.63	40.40	-0.05	7.54
65.837	27.63	40.40	-0.05	7.54
65.866	27.54	40.32	-0.05	7.54
65.896	27.54	40.32	-0.00	7.59
65.926	27.54	40.32	-0.00	7.59
65.956	27.57	40.34	-0.00	7.59
65.986	27.57	40.34	0.02	7.62
66.015	27.57	40.34	0.02	7.62
66.045	27.62	40.40	0.02	7.62
66.075	27.62	40.40	-0.08	7.52
66.105	27.62	40.40	-0.08	7.52
66.134	27.62	40.40	-0.08	7.52
66.164	27.62	40.40	0.04	7.64
66.194	27.62	40.40	0.04	7.64
66.224	27.52	40.30	0.04	7.64
66.253	27.52	40.30	-0.06	7.54
66.283	27.52	40.30	-0.06	7.54
66.313	27.56	40.34	-0.06	7.54
66.343	27.56	40.34	-0.00	7.60
66.372	27.56	40.34	-0.00	7.60
66.402	27.65	40.43	-0.00	7.60
66.432	27.65	40.43	0.02	7.62
66.462	27.65	40.43	0.02	7.62
66.491	27.51	40.29	0.02	7.62
66.521	27.51	40.29	-0.08	7.52
66.551	27.51	40.29	-0.08	7.52
66.581	27.64	40.42	-0.08	7.52
66.610	27.64	40.42	0.04	7.64
66.640	27.64	40.42	0.04	7.64
66.670	27.56	40.33	0.04	7.64
66.700	27.56	40.33	-0.05	7.54
66.729	27.56	40.33	-0.05	7.54
66.759	27.66	40.43	-0.05	7.54
66.789	27.66	40.43	0.00	7.60
66.819	27.66	40.43	0.00	7.60
66.849	27.54	40.32	0.00	7.60
66.878	27.54	40.32	0.01	7.61
66.908	27.54	40.32	0.01	7.61
66.938	27.57	40.35	0.01	7.61
66.968	27.57	40.35	-0.08	7.52
66.997	27.57	40.35	-0.08	7.52
67.027	27.64	40.41	-0.08	7.52
67.057	27.64	40.41	0.05	7.64
67.087	27.64	40.41	0.05	7.64
67.116	27.55	40.32	0.05	7.64
67.146	27.55	40.32	-0.06	7.54
67.176	27.55	40.32	-0.06	7.54
67.206	27.56	40.34	-0.06	7.54
67.235	27.56	40.34	0.00	7.60
67.265	27.56	40.34	0.00	7.60
67.295	27.60	40.38	0.00	7.60
67.325	27.60	40.38	0.02	7.61
67.355	27.60	40.38	0.02	7.61
67.384	27.49	40.27	0.02	7.61
67.414	27.49	40.27	-0.07	7.52
67.444	27.49	40.27	-0.07	7.52
67.474	27.60	40.38	-0.07	7.52
67.503	27.60	40.38	0.04	7.64
67.533	27.60	40.38	0.04	7.64
67.563	27.61	40.39	0.04	7.64
67.593	27.61	40.39	-0.06	7.54
67.622	27.61	40.39	-0.06	7.54
67.652	27.50	40.28	-0.06	7.54
67.682	27.50	40.28	0.01	7.61
67.712	27.50	40.28	0.01	7.61
67.741	27.54	40.31	0.01	7.61
67.771	27.54	40.31	0.01	7.61
67.801	27.54	40.31	0.01	7.61
67.831	27.50	40.28	0.01	7.61
67.860	27.50	40.28	-0.08	7.52
67.890	27.50	40.28	-0.08	7.52
67.920	27.64	40.42	-0.08	7.52
67.950	27.64	40.42	0.05	7.64
67.980	27.64	40.42	0.05	7.64
68.009	27.62	40.40	0.05	7.64
68.039	27.62	40.40	-0.06	7.54
68.069	27.62	40.40	-0.06	7.54
68.099	27.57	40.34	-0.06	7.54
68.128	27.57	40.34	0.01	7.60
68.158	27.57	40.34	0.01	7.60
68.188	27.62	40.39	0.01	7.60
68.218	27.62	40.39	0.01	7.61
68.247	27.62	40.39	0.01	7.61
68.277	27.44	40.22	0.01	7.61
68.307	27.44	40.22	-0.08	7.52
68.337	27.44	40.22	-0.08	7.52
68.366	27.63	40.40	-0.08	7.52
68.396	27.63	40.40	0.04	7.64
68.426	27.63	40.40	0.04	7.64
68.456	27.69	40.47	0.04	7.64
68.486	27.69	40.47	-0.06	7.54
68.515	27.69	40.47	-0.06	7.54
68.545	27.48	40.25	-0.06	7.54
68.575	27.48	40.25	0.01	7.60
68.605	27.48	40.25	0.01	7.60
68.634	27.53	40.31	0.01	7.60
68.664	27.53	40.31	0.01	7.60
68.694	27.53	40.31	0.01	7.60
68.724	27.48	40.26	0.01	7.60
68.753	27.48	40.26	-0.08	7.52
68.783	27.48	40.26	-0.08	7.52
68.813	27.65	40.43	-0.08	7.52
68.843	27.65	40.43	0.05	7.64
68.872	27.65	40.43	0.05	7.64
68.902	27.59	40.36	0.05	7.64
68.932	27.59	40.36	-0.06	7.54
68.962	27.59	40.36	-0.06	7.54
68.991	27.59	40.36	-0.06	7.54
69.021	27.59	40.36	0.01	7.61
69.051	27.59	40.36	0.01	7.61
69.081	27.62	40.40	0.01	7.61
69.111	27.62	40.40	0.00	7.60
69.140	27.62	40.40	0.00	7.60
69.170	27.46	40.24	0.00	7.60
69.200	27.46	40.24	-0.08	7.52
69.230	27.46	40.24	-0.08	7.52
69.259	27.62	40.40	-0.08	7.52
69.289	27.62	40.40	0.04	7.64
69.319	27.62	40.40	0.04	7.64
69.349	27.60	40.38	0.04	7.64
69.378	27.60	40.38	-0.06	7.53
69.408	27.60	40.38	-0.06	7.53
69.438	27.54	40.31	-0.06	7.53
69.468	27.54	40.31	0.01	7.61
69.497	27.54	40.31	0.01	7.61
69.527	27.49	40.26	0.01	7.61
69.557	27.49	40.26	0.00	7.60
69.587	27.49	40.26	0.00	7.60
69.616	27.44	40.21	0.00	7.60
69.646	27.44	40.21	-0.07	7.52
69.676	27.44	40.21	-0.07	7.52
69.706	27.71	40.48	-0.07	7.52
69.736	27.71	40.48	0.05	7.64
69.765	27.71	40.48	0.05	7.64
69.795	27.59	40.37	0.05	7.64
69.825	27.59	40.37	-0.06	7.53
69.855	27.59	40.37	-0.06	7.53
69.884	27.55	40.33	-0.06	7.53
69.914	27.55	40.33	0.01	7.61
69.944	27.55	40.33	0.01	7.61
69.974	27.55	40.32	0.01	7.61
70.003	27.55	40.32	0.00	7.60
70.033	27.55	40.32	0.00	7.60
70.063	27.54	40.31	0.00	7.60
70.093	27.54	40.31	-0.08	7.52
70.122	27.54	40.31	-0.08	7.52
70.152	27.64	40.42	-0.08	7.52
70.182	27.64	40.42	0.05	7.64
70.212	27.64	40.42	0.05	7.64
70.242	27.56	40.34	0.05	7.64
70.271	27.56	40.34	-0.06	7.54
70.301	27.56	40.34	-0.06	7.54
70.331	27.54	40.32	-0.06	7.54
70.361	27.54	40.32	0.01	7.61
70.390	27.54	40.32	0.01	7.61
70.420	27.46	40.24	0.01	7.61
70.450	27.46	40.24	-0.01	7.59
70.480	27.46	40.24	-0.01	7.59
70.509	27.50	40.27	-0.01	7.59
70.539	27.50	40.27	-0.07	7.53
70.569	27.50	40.27	-0.07	7.53
70.599	27.54	40.31	-0.07	7.53
70.628	27.54	40.31	0.04	7.64
70.658	27.54	40.31	0.04	7.64
70.688	27.59	40.36	0.04	7.64
70.718	27.59	40.36	-0.07	7.53
70.747	27.59	40.36	-0.07	7.53
70.777	27.51	40.28	-0.07	7.53
70.807	27.51	40.28	0.01	7.61
70.837	27.51	40.28	0.01	7.61
70.867	27.51	40.28	0.01	7.61
70.896	27.51	40.28	-0.01	7.59
70.926	27.51	40.28	-0.01	7.59
70.956	27.57	40.35	-0.01	7.59
70.986	27.57	40.35	-0.07	7.52
71.015	27.57	40.35	-0.07	7.52
71.045	27.58	40.35	-0.07	7.52
71.075	27.58	40.35	0.04	7.64
71.105	27.58	40.35	0.04	7.64
71.134	27.58	40.36	0.04	7.64
71.164	27.58	40.36	-0.06	7.53
71.194	27.58	40.36	-0.06	7.53
71.224	27.51	40.29	-0.06	7.53
71.253	27.51	40.29	0.02	7.62
71.283	27.51	40.29	0.02	7.62
71.313	27.53	40.30	0.02	7.62
71.343	27.53	40.30	-0.01	7.58
71.372	27.53	40.30	-0.01	7.58
71.402	27.53	40.31	-0.01	7.58
71.432	27.53	40.31	-0.07	7.53
71.462	27.53	40.31	-0.07	7.53
71.492	27.59	40.37	-0.07	7.53
71.521	27.59	40.37	0.05	7.64
71.551	27.59	40.37	0.05	7.64
71.581	27.63	40.40	0.05	7.64
71.611	27.63	40.40	-0.07	7.53
71.640	27.63	40.40	-0.07	7.53
71.670	27.47	40.25	-0.07	7.53
71.700	27.47	40.25	0.02	7.62
71.730	27.47	40.25	0.02	7.62
71.759	27.49	40.27	0.02	7.62
71.789	27.49	40.27	-0.01	7.58
71.819	27.49	40.27	-0.01	7.58
71.849	27.53	40.30	-0.01	7.58
71.878	27.53	40.30	-0.07	7.52
71.908	27.53	40.30	-0.07	7.52
71.938	27.63	40.40	-0.07	7.52
71.968	27.63	40.40	0.05	7.64
71.997	27.63	40.40	0.05	7.64
72.027	27.57	40.35	0.05	7.64
72.057	27.57	40.35	-0.07	7.53
72.087	27.57	40.35	-0.07	7.53
72.117	27.57	40.34	-0.07	7.53
72.146	27.57	40.34	0.02	7.62
72.176	27.57	40.34	0.02	7.62
72.206	27.48	40.26	0.02	7.62
72.236	27.48	40.26	-0.02	7.57
72.265	27.48	40.26	-0.02	7.57
72.295	27.59	40.36	-0.02	7.57
72.325	27.59	40.36	-0.06	7.53
72.355	27.59	40.36	-0.06	7.53
72.384	27.62	40.40	-0.06	7.53
72.414	27.62	40.40	0.05	7.64
72.444	27.62	40.40	0.05	7.64
72.474	27.61	40.39	0.05	7.64
72.503	27.61	40.39	-0.07	7.52
72.533	27.61	40.39	-0.07	7.52
72.563	27.52	40.30	-0.07	7.52
72.593	27.52	40.30	0.02	7.62
72.622	27.52	40.30	0.02	7.62
72.652	27.60	40.37	0.02	7.62
72.682	27.60	40.37	-0.03	7.56
72.712	27.60	40.37	-0.03	7.56
72.742	27.57	40.34	-0.03	7.56
72.771	27.57	40.34	-0.06	7.54
72.801	27.57	40.34	-0.06	7.54
72.831	27.54	40.32	-0.06	7.54
72.861	27.54	40.32	0.05	7.64
72.890	27.54	40.32	0.05	7.64
72.920	27.62	40.40	0.05	7.64
72.950	27.62	40.40	-0.08	7.52
72.980	27.62	40.40	-0.08	7.52
73.009	27.57	40.34	-0.08	7.52
73.039	27.57	40.34	0.02	7.62
73.069	27.57	40.34	0.02	7.62
73.099	27.50	40.28	0.02	7.62
73.128	27.50	40.28	-0.03	7.57
73.158	27.50	40.28	-0.03	7.57
73.188	27.56	40.34	-0.03	7.57
73.218	27.56	40.34	-0.05	7.54
73.247	27.56	40.34	-0.05	7.54
73.277	27.60	40.38	-0.05	7.54
73.307	27.60	40.38	0.04	7.64
73.337	27.60	40.38	0.04	7.64
73.366	27.65	40.42	0.04	7.64
73.396	27.65	40.42	-0.08	7.52
73.426	27.65	40.42	-0.08	7.52
73.456	27.60	40.38	-0.08	7.52
73.486	27.60	40.38	0.02	7.62
73.515	27.60	40.38	0.02	7.62
73.545	27.55	40.32	0.02	7.62
73.575	27.55	40.32	-0.04	7.56
73.605	27.55	40.32	-0.04	7.56
73.634	27.60	40.37	-0.04	7.56
73.664	27.60	40.37	-0.05	7.55
73.694	27.60	40.37	-0.05	7.55
73.724	27.51	40.29	-0.05	7.55
73.753	27.51	40.29	0.05	7.64
73.783	27.51	40.29	0.05	7.64
73.813	27.61	40.38	0.05	7.64
73.843	27.61	40.38	-0.08	7.52
73.872	27.61	40.38	-0.08	7.52
73.902	27.58	40.36	-0.08	7.52
73.932	27.58	40.36	0.03	7.62
73.962	27.58	40.36	0.03	7.62
73.992	27.54	40.32	0.03	7.62
74.021	27.54	40.32	-0.04	7.55
74.051	27.54	40.32	-0.04	7.55
74.081	27.53	40.31	-0.04	7.55
74.111	27.53	40.31	-0.04	7.56
74.140	27.53	40.31	-0.04	7.56
74.170	27.47	40.25	-0.04	7.56
74.200	27.47	40.25	0.05	7.64
74.230	27.47	40.25	0.05	7.64
74.259	27.56	40.34	0.05	7.64
74.289	27.56	40.34	-0.08	7.52
74.319	27.56	40.34	-0.08	7.52
74.349	27.52	40.30	-0.08	7.52
74.378	27.52	40.30	0.03	7.63
74.408	27.52	40.30	0.03	7.63
74.438	27.54	40.31	0.03	7.63
74.468	27.54	40.31	-0.04	7.55
74.497	27.54	40.31	-0.04	7.55
74.527	27.50	40.27	-0.04	7.55
74.557	27.50	40.27	-0.03	7.56
74.587	27.50	40.27	-0.03	7.56
74.617	27.43	40.21	-0.03	7.56
74.646	27.43	40.21	0.04	7.64
74.676	27.43	40.21	0.04	7.64
74.706	27.57	40.34	0.04	7.64
74.736	27.57	40.34	-0.08	7.52
74.765	27.57	40.34	-0.08	7.52
74.795	27.51	40.28	-0.08	7.52
74.825	27.51	40.28	0.03	7.63
74.855	27.51	40.28	0.03	7.63
74.884	27.54	40.32	0.03	7.63
74.914	27.54	40.32	-0.05	7.55
74.944	27.54	40.32	-0.05	7.55
74.974	27.53	40.30	-0.05	7.55
75.003	27.53	40.30	-0.02	7.58
75.033	27.53	40.30	-0.02	7.58
75.063	27.48	40.26	-0.02	7.58
75.093	27.48	40.26	0.04	7.63
75.123	27.48	40.26	0.04	7.63
75.152	27.59	40.36	0.04	7.63
75.182	27.59	40.36	-0.08	7.52
75.212	27.59	40.36	-0.08	7.52
75.242	27.54	40.32	-0.08	7.52
75.271	27.54	40.32	0.04	7.63
75.301	27.54	40.32	0.04	7.63
75.331	27.52	40.29	0.04	7.63
75.361	27.52	40.29	-0.05	7.55
75.390	27.52	40.29	-0.05	7.55
75.420	27.55	40.33	-0.05	7.55
75.450	27.55	40.33	-0.01	7.58
75.480	27.55	40.33	-0.01	7.58
75.509	27.47	40.25	-0.01	7.58
75.539	27.47	40.25	0.04	7.63
75.569	27.47	40.25	0.04	7.63
75.599	27.55	40.33	0.04	7.63
75.628	27.55	40.33	-0.08	7.52
75.658	27.55	40.33	-0.08	7.52
75.688	27.51	40.28	-0.08	7.52
75.718	27.51	40.28	0.04	7.64
75.747	27.51	40.28	0.04	7.64
75.777	27.54	40.32	0.04	7.64
75.807	27.54	40.32	-0.05	7.54
75.837	27.54	40.32	-0.05	7.54
75.867	27.52	40.29	-0.05	7.54
75.896	27.52	40.29	-0.01	7.59
75.926	27.52	40.29	-0.01	7.59
75.956	27.37	40.15	-0.01	7.59
75.986	27.37	40.15	0.03	7.62
76.015	27.37	40.15	0.03	7.62
76.045	27.62	40.39	0.03	7.62
76.075	27.62	40.39	-0.08	7.52
76.105	27.62	40.39	-0.08	7.52
76.134	27.54	40.31	-0.08	7.52
76.164	27.54	40.31	0.04	7.64
76.194	27.54	40.31	0.04	7.64
76.224	27.53	40.30	0.04	7.64
76.253	27.53	40.30	-0.06	7.54
76.283	27.53	40.30	-0.06	7.54
76.313	27.54	40.31	-0.06	7.54
76.343	27.54	40.31	-0.00	7.60
76.372	27.54	40.31	-0.00	7.60
76.402	27.38	40.16	-0.00	7.60
76.432	27.38	40.16	0.02	7.62
76.462	27.38	40.16	0.02	7.62
76.491	27.54	40.32	0.02	7.62
76.521	27.54	40.32	-0.08	7.52
76.551	27.54	40.32	-0.08	7.52
76.581	27.60	40.37	-0.08	7.52
76.610	27.60	40.37	0.04	7.64
76.640	27.60	40.37	0.04	7.64
76.670	27.43	40.21	0.04	7.64
76.700	27.43	40.21	-0.06	7.54
76.730	27.43	40.21	-0.06	7.54
76.759	27.47	40.24	-0.06	7.54
76.789	27.47	40.24	0.01	7.60
76.819	27.47	40.24	0.01	7.60
76.849	27.46	40.24	0.01	7.60
76.878	27.46	40.24	0.01	7.60
76.908	27.46	40.24	0.01	7.60
76.938	27.68	40.45	0.01	7.60
76.968	27.68	40.45	-0.08	7.52
76.997	27.68	40.45	-0.08	7.52
77.027	27.51	40.29	-0.08	7.52
77.057	27.51	40.29	0.04	7.64
77.087	27.51	40.29	0.04	7.64
77.116	27.44	40.22	0.04	7.64
77.146	27.44	40.22	-0.06	7.53
77.176	27.44	40.22	-0.06	7.53
77.206	2.86	15.64	-0.06	7.53
77.236	2.86	15.64	0.00	7.60
77.265	2.86	15.64	0.00	7.60
77.295	-11.78	0.99	0.00	7.60
77.325	-11.78	0.99	-0.00	7.60
77.355	-11.78	0.99	-0.00	7.60
77.384	-1.21	11.56	-0.00	7.60
77.414	-1.21	11.56	-0.08	7.52
77.444	-1.21	11.56	-0.08	7.52
77.474	5.62	18.39	-0.08	7.52
77.503	5.62	18.39	0.04	7.64
77.533	5.62	18.39	0.04	7.64
77.563	3.18	15.95	0.04	7.64
77.593	3.18	15.95	-0.07	7.53
77.622	3.18	15.95	-0.07	7.53
77.652	-2.33	10.45	-0.07	7.53
77.682	-2.33	10.45	0.01	7.61
77.712	-2.33	10.45	0.01	7.61
77.741	-0.56	12.21	0.01	7.61
77.771	-0.56	12.21	-0.01	7.58
77.801	-0.56	12.21	-0.01	7.58
77.831	2.19	14.97	-0.01	7.58
77.861	2.19	14.97	-0.08	7.52
77.890	2.19	14.97	-0.08	7.52
77.920	1.71	14.49	-0.08	7.52
77.950	1.71	14.49	0.05	7.64
77.980	1.71	14.49	0.05	7.64
78.009	-0.16	12.62	0.05	7.64
78.039	-0.16	12.62	-0.07	7.53
78.069	-0.16	12.62	-0.07	7.53
78.099	0.12	12.90	-0.07	7.53
78.128	0.12	12.90	0.02	7.62
78.158	0.12	12.90	0.02	7.62
78.188	1.10	13.88	0.02	7.62
78.218	1.10	13.88	-0.03	7.57
78.248	1.10	13.88	-0.03	7.57
78.277	1.04	13.82	-0.03	7.57
78.307	1.04	13.82	-0.06	7.53
78.337	1.04	13.82	-0.06	7.53
78.367	0.46	13.23	-0.06	7.53
78.396	0.46	13.23	0.04	7.64
78.426	0.46	13.23	0.04	7.64
78.456	0.49	13.27	0.04	7.64
78.486	0.49	13.27	-0.08	7.52
78.516	0.49	13.27	-0.08	7.52
78.545	0.80	13.58	-0.08	7.52
78.575	0.80	13.58	0.02	7.62
78.605	0.80	13.58	0.02	7.62
78.635	0.78	13.56	0.02	7.62
78.664	0.78	13.56	-0.03	7.57
78.694	0.78	13.56	-0.03	7.57
78.724	0.60	13.38	-0.03	7.57
78.754	0.60	13.38	-0.06	7.54
78.783	0.60	13.38	-0.06	7.54
78.813	0.56	13.34	-0.06	7.54
78.843	0.56	13.34	0.04	7.64
78.873	0.56	13.34	0.04	7.64
78.903	0.68	13.45	0.04	7.64
78.932	0.68	13.45	-0.08	7.52
78.962	0.68	13.45	-0.08	7.52
78.992	0.71	13.49	-0.08	7.52
79.022	0.71	13.49	0.02	7.62
79.051	0.71	13.49	0.02	7.62
79.081	0.63	13.40	0.02	7.62
79.111	0.63	13.40	-0.04	7.56
79.141	0.63	13.40	-0.04	7.56
79.170	0.61	13.38	-0.04	7.56
79.200	0.61	13.38	-0.05	7.55
79.230	0.61	13.38	-0.05	7.55
79.260	0.65	13.43	-0.05	7.55
79.290	0.65	13.43	0.04	7.64
79.319	0.65	13.43	0.04	7.64
79.349	0.66	13.43	0.04	7.64
79.379	0.66	13.43	-0.08	7.52
79.409	0.66	13.43	-0.08	7.52
79.438	0.64	13.42	-0.08	7.52
79.468	0.64	13.42	0.02	7.62
79.498	0.64	13.42	0.02	7.62
79.528	0.65	13.43	0.02	7.62
79.557	0.65	13.43	-0.04	7.56
79.587	0.65	13.43	-0.04	7.56
79.617	0.66	13.44	-0.04	7.56
79.647	0.66	13.44	-0.04	7.56
79.677	0.66	13.44	-0.04	7.56
79.706	0.65	13.43	-0.04	7.56
79.736	0.65	13.43	0.04	7.64
79.766	0.65	13.43	0.04	7.64
79.796	0.64	13.42	0.04	7.64
79.825	0.64	13.42	-0.08	7.52
79.855	0.64	13.42	-0.08	7.52
79.885	0.65	13.43	-0.08	7.52
79.915	0.65	13.43	0.03	7.63
79.945	0.65	13.43	0.03	7.63
79.974	0.66	13.44	0.03	7.63
80.004	0.66	13.44	-0.05	7.55
80.034	0.66	13.44	-0.05	7.55
80.064	0.66	13.44	-0.05	7.55
80.093	0.66	13.44	-0.03	7.57
80.123	0.66	13.44	-0.03	7.57
80.153	0.66	13.44	-0.03	7.57
80.183	0.66	13.44	0.04	7.64
80.212	0.66	13.44	0.04	7.64
80.242	0.67	13.44	0.04	7.64
80.272	0.67	13.44	-0.08	7.52
80.302	0.67	13.44	-0.08	7.52
80.332	0.67	13.45	-0.08	7.52
80.361	0.67	13.45	0.03	7.63
80.391	0.67	13.45	0.03	7.63
80.421	0.67	13.44	0.03	7.63
80.451	0.67	13.44	-0.05	7.54
80.480	0.67	13.44	-0.05	7.54
80.510	0.66	13.44	-0.05	7.54
80.540	0.66	13.44	-0.02	7.58
80.570	0.66	13.44	-0.02	7.58
80.600	0.66	13.44	-0.02	7.58
80.629	0.66	13.44	0.04	7.63
80.659	0.66	13.44	0.04	7.63
80.689	0.66	13.43	0.04	7.63
80.719	0.66	13.43	-0.08	7.52
80.748	0.66	13.43	-0.08	7.52
80.778	0.66	13.43	-0.08	7.52
