Tempo(s)    P0(KPa) P0+Coluna(KPa)  P1(KPa) P1+Coluna(KPa)
0.003	-2.22	-2.22	-2.22	-2.22
0.030	-2.22	-2.22	-2.22	-2.22
0.060	8.85	8.85	-2.22	-2.22
0.090	8.85	8.85	7.57	7.57
0.120	8.85	8.85	7.57	7.57
0.149	8.81	8.81	7.57	7.57
0.179	8.81	8.81	7.68	7.68
0.209	8.81	8.81	7.68	7.68
0.239	8.40	8.40	7.68	7.68
0.269	8.40	8.40	7.63	7.63
0.298	8.40	8.40	7.63	7.63
0.328	8.36	8.36	7.63	7.63
0.358	8.36	8.36	7.73	7.73
0.388	8.36	8.36	7.73	7.73
0.418	8.32	8.32	7.73	7.73
0.447	8.32	8.32	7.65	7.65
0.477	8.32	8.32	7.65	7.65
0.507	8.54	8.54	7.65	7.65
0.537	8.54	8.54	7.71	7.71
0.566	8.54	8.54	7.71	7.71
0.596	8.54	8.54	7.71	7.71
0.626	-0.00	8.54	-0.02	7.69
0.656	-0.00	8.54	-0.02	7.69
0.685	-0.03	8.51	-0.02	7.69
0.715	-0.03	8.51	-0.08	7.63
0.745	-0.03	8.51	-0.08	7.63
0.775	-0.06	8.48	-0.08	7.63
0.804	-0.06	8.48	0.03	7.74
0.834	-0.06	8.48	0.03	7.74
0.864	-0.42	8.12	0.03	7.74
0.894	-0.42	8.12	-0.07	7.63
0.923	-0.42	8.12	-0.07	7.63
0.953	0.09	8.63	-0.07	7.63
0.983	0.09	8.63	-0.03	7.68
1.013	0.09	8.63	-0.03	7.68
1.043	0.10	8.64	-0.03	7.68
1.072	0.10	8.64	-0.03	7.68
1.102	0.10	8.64	-0.03	7.68
1.132	-0.19	8.35	-0.03	7.68
1.162	-0.19	8.35	-0.11	7.60
1.192	-0.19	8.35	-0.11	7.60
1.221	-0.20	8.34	-0.11	7.60
1.251	-0.20	8.34	0.00	7.71
1.281	-0.20	8.34	0.00	7.71
1.311	-0.21	8.33	0.00	7.71
1.340	-0.21	8.33	-0.09	7.62
1.370	-0.21	8.33	-0.09	7.62
1.400	-0.22	8.32	-0.09	7.62
1.430	-0.22	8.32	-0.04	7.67
1.460	-0.22	8.32	-0.04	7.67
1.489	-0.19	8.35	-0.04	7.67
1.519	-0.19	8.35	-0.03	7.68
1.549	-0.19	8.35	-0.03	7.68
1.579	-0.19	8.35	-0.03	7.68
1.608	-0.19	8.35	-0.11	7.60
1.638	-0.19	8.35	-0.11	7.60
1.668	-0.20	8.34	-0.11	7.60
1.698	-0.20	8.34	-0.00	7.70
1.728	-0.20	8.34	-0.00	7.70
1.757	-0.20	8.34	-0.00	7.70
1.787	-0.20	8.34	-0.09	7.62
1.817	-0.20	8.34	-0.09	7.62
1.847	-0.20	8.34	-0.09	7.62
1.877	-0.20	8.34	-0.03	7.68
1.906	-0.20	8.34	-0.03	7.68
1.936	-0.21	8.33	-0.03	7.68
1.966	-0.21	8.33	-0.04	7.67
1.996	-0.21	8.33	-0.04	7.67
2.025	-0.21	8.33	-0.04	7.67
2.055	-0.21	8.33	-0.11	7.60
2.085	-0.21	8.33	-0.11	7.60
2.115	-0.21	8.33	-0.11	7.60
2.145	-0.21	8.33	-0.01	7.70
2.174	-0.21	8.33	-0.01	7.70
2.204	-0.22	8.32	-0.01	7.70
2.234	-0.22	8.32	-0.10	7.61
2.264	-0.22	8.32	-0.10	7.61
2.293	-0.21	8.33	-0.10	7.61
2.323	-0.21	8.33	-0.03	7.68
2.353	-0.21	8.33	-0.03	7.68
2.383	-0.22	8.32	-0.03	7.68
2.413	-0.22	8.32	-0.04	7.67
2.442	-0.22	8.32	-0.04	7.67
2.472	-0.22	8.32	-0.04	7.67
2.502	-0.22	8.32	-0.11	7.59
2.532	-0.22	8.32	-0.11	7.59
2.562	-0.22	8.32	-0.11	7.59
2.591	-0.22	8.32	-0.00	7.71
2.621	-0.22	8.32	-0.00	7.71
2.651	-0.22	8.32	-0.00	7.71
2.681	-0.22	8.32	-0.10	7.61
2.710	-0.22	8.32	-0.10	7.61
2.740	-0.22	8.32	-0.10	7.61
2.770	-0.22	8.32	-0.03	7.68
2.800	-0.22	8.32	-0.03	7.68
2.830	-0.23	8.32	-0.03	7.68
2.859	-0.23	8.32	-0.04	7.67
2.889	-0.23	8.32	-0.04	7.67
2.919	-0.23	8.31	-0.04	7.67
2.949	-0.23	8.31	-0.11	7.60
2.978	-0.23	8.31	-0.11	7.60
3.008	-0.23	8.31	-0.11	7.60
3.038	-0.23	8.31	-0.01	7.70
3.068	-0.23	8.31	-0.01	7.70
3.098	-0.23	8.31	-0.01	7.70
3.127	-0.23	8.31	-0.11	7.60
3.157	-0.23	8.31	-0.11	7.60
3.187	-0.23	8.31	-0.11	7.60
3.217	-0.23	8.31	-0.04	7.67
3.247	-0.23	8.31	-0.04	7.67
3.276	-0.24	8.30	-0.04	7.67
3.306	-0.24	8.30	-0.05	7.66
3.336	-0.24	8.30	-0.05	7.66
3.366	-0.25	8.29	-0.05	7.66
3.395	-0.25	8.29	-0.11	7.60
3.425	-0.25	8.29	-0.11	7.60
3.455	-0.26	8.28	-0.11	7.60
3.485	-0.26	8.28	-0.00	7.70
3.515	-0.26	8.28	-0.00	7.70
3.544	-0.26	8.28	-0.00	7.70
3.574	-0.26	8.28	-0.10	7.61
3.604	-0.26	8.28	-0.10	7.61
3.634	-0.26	8.28	-0.10	7.61
3.663	-0.26	8.28	-0.03	7.68
3.693	-0.26	8.28	-0.03	7.68
3.723	-0.26	8.28	-0.03	7.68
3.753	-0.26	8.28	-0.05	7.66
3.783	-0.26	8.28	-0.05	7.66
3.812	-0.27	8.27	-0.05	7.66
3.842	-0.27	8.27	-0.11	7.59
3.872	-0.27	8.27	-0.11	7.59
3.902	-0.27	8.27	-0.11	7.59
3.931	-0.27	8.27	-0.01	7.70
3.961	-0.27	8.27	-0.01	7.70
3.991	-0.27	8.27	-0.01	7.70
4.021	-0.27	8.27	-0.10	7.61
4.051	-0.27	8.27	-0.10	7.61
4.080	-0.27	8.27	-0.10	7.61
4.110	-0.27	8.27	-0.03	7.68
4.140	-0.27	8.27	-0.03	7.68
4.170	-0.28	8.27	-0.03	7.68
4.200	-0.28	8.27	-0.05	7.66
4.229	-0.28	8.27	-0.05	7.66
4.259	-0.28	8.26	-0.05	7.66
4.289	-0.28	8.26	-0.11	7.60
4.319	-0.28	8.26	-0.11	7.60
4.348	-0.26	8.28	-0.11	7.60
4.378	-0.26	8.28	-0.01	7.70
4.408	-0.26	8.28	-0.01	7.70
4.438	-0.26	8.28	-0.01	7.70
4.468	-0.26	8.28	-0.10	7.61
4.497	-0.26	8.28	-0.10	7.61
4.527	-0.26	8.28	-0.10	7.61
4.557	-0.26	8.28	-0.03	7.68
4.587	-0.26	8.28	-0.03	7.68
4.616	-0.26	8.28	-0.03	7.68
4.646	-0.26	8.28	-0.05	7.66
4.676	-0.26	8.28	-0.05	7.66
4.706	-0.27	8.27	-0.05	7.66
4.736	-0.27	8.27	-0.11	7.60
4.765	-0.27	8.27	-0.11	7.60
4.795	-0.27	8.27	-0.11	7.60
4.825	-0.27	8.27	-0.01	7.70
4.855	-0.27	8.27	-0.01	7.70
4.885	-0.27	8.27	-0.01	7.70
4.914	-0.27	8.27	-0.10	7.61
4.944	-0.27	8.27	-0.10	7.61
4.974	-0.27	8.27	-0.10	7.61
5.004	-0.27	8.27	-0.03	7.68
5.033	-0.27	8.27	-0.03	7.68
5.063	2.84	11.38	-0.03	7.68
5.093	2.84	11.38	-0.05	7.66
5.123	2.84	11.38	-0.05	7.66
5.153	18.14	26.68	-0.05	7.66
5.182	18.14	26.68	-0.10	7.60
5.212	18.14	26.68	-0.10	7.60
5.242	23.85	32.39	-0.10	7.60
5.272	23.85	32.39	-0.00	7.71
5.301	23.85	32.39	-0.00	7.71
5.331	21.37	29.91	-0.00	7.71
5.361	21.37	29.91	-0.10	7.61
5.391	21.37	29.91	-0.10	7.61
5.420	21.00	29.54	-0.10	7.61
5.450	21.00	29.54	-0.03	7.68
5.480	21.00	29.54	-0.03	7.68
5.510	21.13	29.67	-0.03	7.68
5.540	21.13	29.67	-0.05	7.66
5.569	21.13	29.67	-0.05	7.66
5.599	21.07	29.61	-0.05	7.66
5.629	21.07	29.61	-0.11	7.60
5.659	21.07	29.61	-0.11	7.60
5.688	21.09	29.63	-0.11	7.60
5.718	21.09	29.63	-0.00	7.71
5.748	21.09	29.63	-0.00	7.71
5.778	21.12	29.66	-0.00	7.71
5.807	21.12	29.66	-0.10	7.61
5.837	21.12	29.66	-0.10	7.61
5.867	21.07	29.61	-0.10	7.61
5.897	21.07	29.61	-0.03	7.68
5.927	21.07	29.61	-0.03	7.68
5.956	21.08	29.62	-0.03	7.68
5.986	21.08	29.62	-0.05	7.65
6.016	21.08	29.62	-0.05	7.65
6.046	21.07	29.61	-0.05	7.65
6.075	21.07	29.61	-0.11	7.60
6.105	21.07	29.61	-0.11	7.60
6.135	21.06	29.60	-0.11	7.60
6.165	21.06	29.60	-0.00	7.70
6.194	21.06	29.60	-0.00	7.70
6.224	21.06	29.60	-0.00	7.70
6.254	21.06	29.60	-0.10	7.61
6.284	21.06	29.60	-0.10	7.61
6.314	21.06	29.60	-0.10	7.61
6.343	21.06	29.60	-0.02	7.69
6.373	21.06	29.60	-0.02	7.69
6.403	21.06	29.60	-0.02	7.69
6.433	21.06	29.60	-0.05	7.65
6.462	21.06	29.60	-0.05	7.65
6.492	21.05	29.59	-0.05	7.65
6.522	21.05	29.59	-0.11	7.60
6.552	21.05	29.59	-0.11	7.60
6.581	21.06	29.60	-0.11	7.60
6.611	21.06	29.60	-0.00	7.71
6.641	21.06	29.60	-0.00	7.71
6.671	21.08	29.62	-0.00	7.71
6.701	21.08	29.62	-0.11	7.60
6.730	21.08	29.62	-0.11	7.60
6.760	21.12	29.66	-0.11	7.60
6.790	21.12	29.66	-0.02	7.69
6.820	21.12	29.66	-0.02	7.69
6.849	21.09	29.63	-0.02	7.69
6.879	21.09	29.63	-0.05	7.66
6.909	21.09	29.63	-0.05	7.66
6.939	21.09	29.63	-0.05	7.66
6.968	21.09	29.63	-0.11	7.60
6.998	21.09	29.63	-0.11	7.60
7.028	21.08	29.62	-0.11	7.60
7.058	21.08	29.62	0.00	7.71
7.088	21.08	29.62	0.00	7.71
7.117	21.12	29.66	0.00	7.71
7.147	21.12	29.66	-0.10	7.61
7.177	21.12	29.66	-0.10	7.61
7.207	21.18	29.72	-0.10	7.61
7.236	21.18	29.72	-0.02	7.68
7.266	21.18	29.72	-0.02	7.68
7.296	21.12	29.66	-0.02	7.68
7.326	21.12	29.66	-0.06	7.65
7.355	21.12	29.66	-0.06	7.65
7.385	21.07	29.61	-0.06	7.65
7.415	21.07	29.61	-0.10	7.60
7.445	21.07	29.61	-0.10	7.60
7.474	21.08	29.62	-0.10	7.60
7.504	21.08	29.62	0.00	7.71
7.534	21.08	29.62	0.00	7.71
7.564	21.09	29.63	0.00	7.71
7.593	21.09	29.63	-0.11	7.60
7.623	21.09	29.63	-0.11	7.60
7.653	21.11	29.65	-0.11	7.60
7.683	21.11	29.65	-0.03	7.68
7.712	21.11	29.65	-0.03	7.68
7.742	21.09	29.63	-0.03	7.68
7.772	21.09	29.63	-0.06	7.65
7.802	21.09	29.63	-0.06	7.65
7.832	21.07	29.61	-0.06	7.65
7.861	21.07	29.61	-0.11	7.60
7.891	21.07	29.61	-0.11	7.60
7.921	21.09	29.63	-0.11	7.60
7.951	21.09	29.63	-0.00	7.70
7.980	21.09	29.63	-0.00	7.70
8.010	21.13	29.67	-0.00	7.70
8.040	21.13	29.67	-0.11	7.60
8.070	21.13	29.67	-0.11	7.60
8.099	21.15	29.69	-0.11	7.60
8.129	21.15	29.69	-0.02	7.68
8.159	21.15	29.69	-0.02	7.68
8.189	21.14	29.68	-0.02	7.68
8.219	21.14	29.68	-0.06	7.65
8.248	21.14	29.68	-0.06	7.65
8.278	21.10	29.64	-0.06	7.65
8.308	21.10	29.64	-0.10	7.60
8.338	21.10	29.64	-0.10	7.60
8.367	21.06	29.60	-0.10	7.60
8.397	21.06	29.60	-0.00	7.71
8.427	21.06	29.60	-0.00	7.71
8.457	21.08	29.62	-0.00	7.71
8.486	21.08	29.62	-0.10	7.60
8.516	21.08	29.62	-0.10	7.60
8.546	21.14	29.68	-0.10	7.60
8.576	21.14	29.68	-0.03	7.68
8.606	21.14	29.68	-0.03	7.68
8.635	21.10	29.64	-0.03	7.68
8.665	21.10	29.64	-0.06	7.64
8.695	21.10	29.64	-0.06	7.64
8.725	21.10	29.64	-0.06	7.64
8.754	21.10	29.64	-0.10	7.60
8.784	21.10	29.64	-0.10	7.60
8.814	21.10	29.64	-0.10	7.60
8.844	21.10	29.64	-0.00	7.71
8.873	21.10	29.64	-0.00	7.71
8.903	21.10	29.64	-0.00	7.71
8.933	21.10	29.64	-0.11	7.60
8.963	21.10	29.64	-0.11	7.60
8.993	21.11	29.65	-0.11	7.60
9.022	21.11	29.65	-0.02	7.69
9.052	21.11	29.65	-0.02	7.69
9.082	21.09	29.63	-0.02	7.69
9.112	21.09	29.63	-0.06	7.65
9.141	21.09	29.63	-0.06	7.65
9.171	21.06	29.60	-0.06	7.65
9.201	21.06	29.60	-0.11	7.60
9.231	21.06	29.60	-0.11	7.60
9.260	21.03	29.57	-0.11	7.60
9.290	21.03	29.57	0.00	7.71
9.320	21.03	29.57	0.00	7.71
9.350	21.04	29.58	0.00	7.71
9.380	21.04	29.58	-0.11	7.60
9.409	21.04	29.58	-0.11	7.60
9.439	21.08	29.62	-0.11	7.60
9.469	21.08	29.62	-0.02	7.68
9.499	21.08	29.62	-0.02	7.68
9.528	21.09	29.63	-0.02	7.68
9.558	21.09	29.63	-0.06	7.65
9.588	21.09	29.63	-0.06	7.65
9.618	21.06	29.60	-0.06	7.65
9.648	21.06	29.60	-0.10	7.61
9.677	21.06	29.60	-0.10	7.61
9.707	21.06	29.60	-0.10	7.61
9.737	21.06	29.60	0.00	7.71
9.767	21.06	29.60	0.00	7.71
9.796	21.06	29.60	0.00	7.71
9.826	21.06	29.60	-0.10	7.60
9.856	21.06	29.60	-0.10	7.60
9.886	21.14	29.68	-0.10	7.60
9.915	21.14	29.68	-0.02	7.69
9.945	21.14	29.68	-0.02	7.69
9.975	21.12	29.66	-0.02	7.69
10.005	21.12	29.66	-0.06	7.65
10.034	21.12	29.66	-0.06	7.65
10.064	21.12	29.66	-0.06	7.65
10.094	21.12	29.66	-0.10	7.60
10.124	21.12	29.66	-0.10	7.60
10.154	21.06	29.60	-0.10	7.60
10.183	21.06	29.60	0.00	7.71
10.213	21.06	29.60	0.00	7.71
10.243	21.05	29.59	0.00	7.71
10.273	21.05	29.59	-0.11	7.60
10.302	21.05	29.59	-0.11	7.60
10.332	21.12	29.67	-0.11	7.60
10.362	21.12	29.67	-0.02	7.69
10.392	21.12	29.67	-0.02	7.69
10.421	21.11	29.65	-0.02	7.69
10.451	21.11	29.65	-0.06	7.65
10.481	21.11	29.65	-0.06	7.65
10.511	21.08	29.62	-0.06	7.65
10.540	21.08	29.62	-0.10	7.61
10.570	21.08	29.62	-0.10	7.61
10.600	21.08	29.62	-0.10	7.61
10.630	21.08	29.62	0.00	7.71
10.659	21.08	29.62	0.00	7.71
10.689	21.11	29.65	0.00	7.71
10.719	21.11	29.65	-0.11	7.60
10.749	21.11	29.65	-0.11	7.60
10.778	21.11	29.65	-0.11	7.60
10.808	21.11	29.65	-0.02	7.69
10.838	21.11	29.65	-0.02	7.69
10.868	21.11	29.65	-0.02	7.69
10.897	21.11	29.65	-0.06	7.65
10.927	21.11	29.65	-0.06	7.65
10.957	21.09	29.63	-0.06	7.65
10.987	21.09	29.63	-0.10	7.61
11.016	21.09	29.63	-0.10	7.61
11.046	21.08	29.62	-0.10	7.61
11.076	21.08	29.62	-0.00	7.70
11.106	21.08	29.62	-0.00	7.70
11.135	21.06	29.60	-0.00	7.70
11.165	21.06	29.60	-0.11	7.60
11.195	21.06	29.60	-0.11	7.60
11.225	21.10	29.64	-0.11	7.60
11.254	21.10	29.64	-0.02	7.69
11.284	21.10	29.64	-0.02	7.69
11.314	21.12	29.66	-0.02	7.69
11.344	21.12	29.66	-0.06	7.65
11.374	21.12	29.66	-0.06	7.65
11.403	21.08	29.62	-0.06	7.65
11.433	21.08	29.62	-0.10	7.61
11.463	21.08	29.62	-0.10	7.61
11.493	21.09	29.63	-0.10	7.61
11.522	21.09	29.63	0.00	7.71
11.552	21.09	29.63	0.00	7.71
11.582	21.07	29.61	0.00	7.71
11.612	21.07	29.61	-0.11	7.60
11.641	21.07	29.61	-0.11	7.60
11.671	21.12	29.66	-0.11	7.60
11.701	21.12	29.66	-0.02	7.69
11.731	21.12	29.66	-0.02	7.69
11.760	21.13	29.67	-0.02	7.69
11.790	21.13	29.67	-0.06	7.64
11.820	21.13	29.67	-0.06	7.64
11.850	21.09	29.63	-0.06	7.64
11.879	21.09	29.63	-0.10	7.61
11.909	21.09	29.63	-0.10	7.61
11.939	21.07	29.61	-0.10	7.61
11.969	21.07	29.61	-0.00	7.70
11.998	21.07	29.61	-0.00	7.70
12.028	21.08	29.62	-0.00	7.70
12.058	21.08	29.62	-0.11	7.60
12.088	21.08	29.62	-0.11	7.60
12.117	21.12	29.67	-0.11	7.60
12.147	21.12	29.67	-0.02	7.69
12.177	21.12	29.67	-0.02	7.69
12.207	21.10	29.64	-0.02	7.69
12.236	21.10	29.64	-0.07	7.64
12.266	21.10	29.64	-0.07	7.64
12.296	21.09	29.63	-0.07	7.64
12.326	21.09	29.63	-0.10	7.61
12.356	21.09	29.63	-0.10	7.61
12.385	21.10	29.64	-0.10	7.61
12.415	21.10	29.64	0.00	7.71
12.445	21.10	29.64	0.00	7.71
12.475	21.08	29.62	0.00	7.71
12.504	21.08	29.62	-0.11	7.60
12.534	21.08	29.62	-0.11	7.60
12.564	21.09	29.63	-0.11	7.60
12.594	21.09	29.63	-0.02	7.68
12.623	21.09	29.63	-0.02	7.68
12.653	21.10	29.64	-0.02	7.68
12.683	21.10	29.64	-0.06	7.64
12.713	21.10	29.64	-0.06	7.64
12.742	21.08	29.62	-0.06	7.64
12.772	21.08	29.62	-0.10	7.61
12.802	21.08	29.62	-0.10	7.61
12.832	21.07	29.61	-0.10	7.61
12.861	21.07	29.61	0.00	7.71
12.891	21.07	29.61	0.00	7.71
12.921	21.07	29.61	0.00	7.71
12.951	21.07	29.61	-0.11	7.60
12.980	21.07	29.61	-0.11	7.60
13.010	21.07	29.61	-0.11	7.60
13.040	21.07	29.61	-0.02	7.69
13.070	21.07	29.61	-0.02	7.69
13.099	21.09	29.63	-0.02	7.69
13.129	21.09	29.63	-0.07	7.64
13.159	21.09	29.63	-0.07	7.64
13.189	21.07	29.62	-0.07	7.64
13.219	21.07	29.62	-0.10	7.60
13.248	21.07	29.62	-0.10	7.60
13.278	21.06	29.60	-0.10	7.60
13.308	21.06	29.60	-0.00	7.71
13.338	21.06	29.60	-0.00	7.71
13.367	21.05	29.59	-0.00	7.71
13.397	21.05	29.59	-0.11	7.60
13.427	21.05	29.59	-0.11	7.60
13.457	21.07	29.61	-0.11	7.60
13.486	21.07	29.61	-0.02	7.69
13.516	21.07	29.61	-0.02	7.69
13.546	21.12	29.66	-0.02	7.69
13.576	21.12	29.66	-0.07	7.64
13.605	21.12	29.66	-0.07	7.64
13.635	21.12	29.66	-0.07	7.64
13.665	21.12	29.66	-0.10	7.61
13.695	21.12	29.66	-0.10	7.61
13.724	21.14	29.68	-0.10	7.61
13.754	21.14	29.68	0.00	7.71
13.784	21.14	29.68	0.00	7.71
13.814	21.11	29.65	0.00	7.71
13.843	21.11	29.65	-0.11	7.60
13.873	21.11	29.65	-0.11	7.60
13.903	21.11	29.65	-0.11	7.60
13.933	21.11	29.65	-0.03	7.68
13.962	21.11	29.65	-0.03	7.68
13.992	21.09	29.63	-0.03	7.68
14.022	21.09	29.63	-0.07	7.64
14.052	21.09	29.63	-0.07	7.64
14.082	21.06	29.60	-0.07	7.64
14.111	21.06	29.60	-0.10	7.61
14.141	21.06	29.60	-0.10	7.61
14.171	21.05	29.59	-0.10	7.61
14.201	21.05	29.59	-0.00	7.71
14.230	21.05	29.59	-0.00	7.71
14.260	21.06	29.60	-0.00	7.71
14.290	21.06	29.60	-0.11	7.60
14.320	21.06	29.60	-0.11	7.60
14.349	21.04	29.58	-0.11	7.60
14.379	21.04	29.58	-0.02	7.69
14.409	21.04	29.58	-0.02	7.69
14.439	21.08	29.62	-0.02	7.69
14.468	21.08	29.62	-0.06	7.64
14.498	21.08	29.62	-0.06	7.64
14.528	21.07	29.61	-0.06	7.64
14.558	21.07	29.61	-0.10	7.61
14.587	21.07	29.61	-0.10	7.61
14.617	21.06	29.60	-0.10	7.61
14.647	21.06	29.60	0.00	7.71
14.677	21.06	29.60	0.00	7.71
14.707	21.04	29.58	0.00	7.71
14.736	21.04	29.58	-0.11	7.60
14.766	21.04	29.58	-0.11	7.60
14.796	21.04	29.58	-0.11	7.60
14.826	21.04	29.58	-0.02	7.69
14.855	21.04	29.58	-0.02	7.69
14.885	21.07	29.61	-0.02	7.69
14.915	21.07	29.61	-0.06	7.65
14.945	21.07	29.61	-0.06	7.65
14.974	21.02	29.56	-0.06	7.65
15.004	21.02	29.56	-0.10	7.61
15.034	21.02	29.56	-0.10	7.61
15.064	21.04	29.58	-0.10	7.61
15.093	21.04	29.58	-0.00	7.71
15.123	21.04	29.58	-0.00	7.71
15.153	21.02	29.57	-0.00	7.71
15.183	21.02	29.57	-0.11	7.60
15.212	21.02	29.57	-0.11	7.60
15.242	21.01	29.55	-0.11	7.60
15.272	21.01	29.55	-0.02	7.69
15.302	21.01	29.55	-0.02	7.69
15.332	21.03	29.57	-0.02	7.69
15.361	21.03	29.57	-0.06	7.64
15.391	21.03	29.57	-0.06	7.64
15.421	21.02	29.56	-0.06	7.64
15.451	21.02	29.56	-0.10	7.61
15.480	21.02	29.56	-0.10	7.61
15.510	21.02	29.56	-0.10	7.61
15.540	21.02	29.56	0.00	7.71
15.570	21.02	29.56	0.00	7.71
15.599	21.01	29.55	0.00	7.71
15.629	21.01	29.55	-0.10	7.60
15.659	21.01	29.55	-0.10	7.60
15.689	21.01	29.55	-0.10	7.60
15.718	21.01	29.55	-0.02	7.69
15.748	21.01	29.55	-0.02	7.69
15.778	21.02	29.56	-0.02	7.69
15.808	21.02	29.56	-0.07	7.64
15.837	21.02	29.56	-0.07	7.64
15.867	21.01	29.55	-0.07	7.64
15.897	21.01	29.55	-0.10	7.61
15.927	21.01	29.55	-0.10	7.61
15.956	21.00	29.54	-0.10	7.61
15.986	21.00	29.54	0.00	7.71
16.016	21.00	29.54	0.00	7.71
16.046	21.01	29.55	0.00	7.71
16.075	21.01	29.55	-0.11	7.60
16.105	21.01	29.55	-0.11	7.60
16.135	21.01	29.55	-0.11	7.60
16.165	21.01	29.55	-0.02	7.69
16.194	21.01	29.55	-0.02	7.69
16.224	21.01	29.55	-0.02	7.69
16.254	21.01	29.55	-0.06	7.64
16.284	21.01	29.55	-0.06	7.64
16.313	21.01	29.55	-0.06	7.64
16.343	21.01	29.55	-0.10	7.61
16.373	21.01	29.55	-0.10	7.61
16.403	20.99	29.53	-0.10	7.61
16.433	20.99	29.53	-0.00	7.70
16.462	20.99	29.53	-0.00	7.70
16.492	21.00	29.54	-0.00	7.70
16.522	21.00	29.54	-0.11	7.60
16.552	21.00	29.54	-0.11	7.60
16.581	20.99	29.53	-0.11	7.60
16.611	20.99	29.53	-0.02	7.68
16.641	20.99	29.53	-0.02	7.68
16.671	21.00	29.54	-0.02	7.68
16.700	21.00	29.54	-0.06	7.64
16.730	21.00	29.54	-0.06	7.64
16.760	21.00	29.54	-0.06	7.64
16.790	21.00	29.54	-0.10	7.61
16.819	21.00	29.54	-0.10	7.61
16.849	20.99	29.53	-0.10	7.61
16.879	20.99	29.53	0.00	7.71
16.909	20.99	29.53	0.00	7.71
16.938	21.00	29.54	0.00	7.71
16.968	21.00	29.54	-0.11	7.60
16.998	21.00	29.54	-0.11	7.60
17.028	21.00	29.54	-0.11	7.60
17.057	21.00	29.54	-0.02	7.69
17.087	21.00	29.54	-0.02	7.69
17.117	21.01	29.55	-0.02	7.69
17.147	21.01	29.55	-0.06	7.64
17.176	21.01	29.55	-0.06	7.64
17.206	21.00	29.54	-0.06	7.64
17.236	21.00	29.54	-0.10	7.61
17.266	21.00	29.54	-0.10	7.61
17.295	21.00	29.54	-0.10	7.61
17.325	21.00	29.54	0.00	7.71
17.355	21.00	29.54	0.00	7.71
17.385	21.00	29.54	0.00	7.71
17.414	21.00	29.54	-0.11	7.60
17.444	21.00	29.54	-0.11	7.60
17.474	20.98	29.52	-0.11	7.60
17.504	20.98	29.52	-0.02	7.68
17.533	20.98	29.52	-0.02	7.68
17.563	21.00	29.54	-0.02	7.68
17.593	21.00	29.54	-0.06	7.65
17.623	21.00	29.54	-0.06	7.65
17.652	21.00	29.54	-0.06	7.65
17.682	21.00	29.54	-0.10	7.60
17.712	21.00	29.54	-0.10	7.60
17.742	21.00	29.54	-0.10	7.60
17.771	21.00	29.54	0.00	7.71
17.801	21.00	29.54	0.00	7.71
17.831	21.00	29.54	0.00	7.71
17.861	21.00	29.54	-0.11	7.60
17.890	21.00	29.54	-0.11	7.60
17.920	21.00	29.54	-0.11	7.60
17.950	21.00	29.54	-0.02	7.68
17.980	21.00	29.54	-0.02	7.68
18.009	21.01	29.55	-0.02	7.68
18.039	21.01	29.55	-0.06	7.64
18.069	21.01	29.55	-0.06	7.64
18.099	21.03	29.57	-0.06	7.64
18.128	21.03	29.57	-0.10	7.61
18.158	21.03	29.57	-0.10	7.61
18.188	21.01	29.55	-0.10	7.61
18.218	21.01	29.55	0.00	7.71
18.247	21.01	29.55	0.00	7.71
18.277	20.99	29.53	0.00	7.71
18.307	20.99	29.53	-0.11	7.60
18.337	20.99	29.53	-0.11	7.60
18.366	21.02	29.56	-0.11	7.60
18.396	21.02	29.56	-0.02	7.69
18.426	21.02	29.56	-0.02	7.69
18.456	21.03	29.57	-0.02	7.69
18.486	21.03	29.57	-0.07	7.64
18.515	21.03	29.57	-0.07	7.64
18.545	21.04	29.58	-0.07	7.64
18.575	21.04	29.58	-0.11	7.60
18.605	21.04	29.58	-0.11	7.60
18.634	21.03	29.57	-0.11	7.60
18.664	21.03	29.57	0.00	7.71
18.694	21.03	29.57	0.00	7.71
18.724	21.02	29.56	0.00	7.71
18.753	21.02	29.56	-0.10	7.60
18.783	21.02	29.56	-0.10	7.60
18.813	21.00	29.54	-0.10	7.60
18.843	21.00	29.54	-0.02	7.69
18.872	21.00	29.54	-0.02	7.69
18.902	20.99	29.53	-0.02	7.69
18.932	20.99	29.53	-0.06	7.64
18.962	20.99	29.53	-0.06	7.64
18.991	21.02	29.56	-0.06	7.64
19.021	21.02	29.56	-0.10	7.60
19.051	21.02	29.56	-0.10	7.60
19.081	21.00	29.54	-0.10	7.60
19.110	21.00	29.54	0.00	7.71
19.140	21.00	29.54	0.00	7.71
19.170	20.97	29.51	0.00	7.71
19.200	20.97	29.51	-0.11	7.60
19.229	20.97	29.51	-0.11	7.60
19.259	20.97	29.51	-0.11	7.60
19.289	20.97	29.51	-0.02	7.69
19.319	20.97	29.51	-0.02	7.69
19.348	20.97	29.51	-0.02	7.69
19.378	20.97	29.51	-0.06	7.65
19.408	20.97	29.51	-0.06	7.65
19.438	21.00	29.54	-0.06	7.65
19.467	21.00	29.54	-0.10	7.60
19.497	21.00	29.54	-0.10	7.60
19.527	20.96	29.50	-0.10	7.60
19.557	20.96	29.50	0.00	7.71
19.586	20.96	29.50	0.00	7.71
19.616	20.99	29.53	0.00	7.71
19.646	20.99	29.53	-0.11	7.60
19.676	20.99	29.53	-0.11	7.60
19.705	20.96	29.50	-0.11	7.60
19.735	20.96	29.50	-0.02	7.69
19.765	20.96	29.50	-0.02	7.69
19.795	20.97	29.51	-0.02	7.69
19.824	20.97	29.51	-0.06	7.65
19.854	20.97	29.51	-0.06	7.65
19.884	20.97	29.51	-0.06	7.65
19.914	20.97	29.51	-0.10	7.61
19.943	20.97	29.51	-0.10	7.61
19.973	20.96	29.50	-0.10	7.61
20.003	20.96	29.50	0.00	7.71
20.033	20.96	29.50	0.00	7.71
20.062	20.96	29.50	0.00	7.71
20.092	20.96	29.50	-0.11	7.60
20.122	20.96	29.50	-0.11	7.60
20.152	20.97	29.51	-0.11	7.60
20.182	20.97	29.51	-0.02	7.69
20.211	20.97	29.51	-0.02	7.69
20.241	20.96	29.50	-0.02	7.69
20.271	20.96	29.50	-0.06	7.65
20.301	20.96	29.50	-0.06	7.65
20.330	20.98	29.52	-0.06	7.65
20.360	20.98	29.52	-0.10	7.61
20.390	20.98	29.52	-0.10	7.61
20.420	20.96	29.50	-0.10	7.61
20.449	20.96	29.50	-0.00	7.71
20.479	20.96	29.50	-0.00	7.71
20.509	20.94	29.48	-0.00	7.71
20.539	20.94	29.48	-0.11	7.60
20.568	20.94	29.48	-0.11	7.60
20.598	20.96	29.50	-0.11	7.60
20.628	20.96	29.50	-0.02	7.69
20.658	20.96	29.50	-0.02	7.69
20.687	20.97	29.52	-0.02	7.69
20.717	20.97	29.52	-0.06	7.65
20.747	20.97	29.52	-0.06	7.65
20.777	21.00	29.54	-0.06	7.65
20.806	21.00	29.54	-0.10	7.60
20.836	21.00	29.54	-0.10	7.60
20.866	21.00	29.54	-0.10	7.60
20.896	21.00	29.54	0.00	7.71
20.926	21.00	29.54	0.00	7.71
20.955	20.96	29.50	0.00	7.71
20.985	20.96	29.50	-0.11	7.60
21.015	20.96	29.50	-0.11	7.60
21.044	20.95	29.49	-0.11	7.60
21.074	20.95	29.49	-0.02	7.68
21.104	20.95	29.49	-0.02	7.68
21.134	20.94	29.48	-0.02	7.68
21.163	20.94	29.48	-0.06	7.64
21.193	20.94	29.48	-0.06	7.64
21.223	20.96	29.50	-0.06	7.64
21.253	20.96	29.50	-0.10	7.61
21.283	20.96	29.50	-0.10	7.61
21.312	20.97	29.51	-0.10	7.61
21.342	20.97	29.51	-0.00	7.70
21.372	20.97	29.51	-0.00	7.70
21.402	20.94	29.48	-0.00	7.70
21.431	20.94	29.48	-0.11	7.60
21.461	20.94	29.48	-0.11	7.60
21.491	20.94	29.48	-0.11	7.60
21.521	20.94	29.48	-0.02	7.69
21.550	20.94	29.48	-0.02	7.69
21.580	20.94	29.48	-0.02	7.69
21.610	20.94	29.48	-0.07	7.64
21.640	20.94	29.48	-0.07	7.64
21.669	20.95	29.49	-0.07	7.64
21.699	20.95	29.49	-0.10	7.60
21.729	20.95	29.49	-0.10	7.60
21.759	20.96	29.50	-0.10	7.60
21.788	20.96	29.50	-0.00	7.71
21.818	20.96	29.50	-0.00	7.71
21.848	20.94	29.48	-0.00	7.71
21.878	20.94	29.48	-0.11	7.60
21.908	20.94	29.48	-0.11	7.60
21.937	20.94	29.48	-0.11	7.60
21.967	20.94	29.48	-0.02	7.68
21.997	20.94	29.48	-0.02	7.68
22.027	20.91	29.45	-0.02	7.68
22.056	20.91	29.45	-0.06	7.65
22.086	20.91	29.45	-0.06	7.65
22.116	20.93	29.47	-0.06	7.65
22.146	20.93	29.47	-0.10	7.61
22.175	20.93	29.47	-0.10	7.61
22.205	20.94	29.48	-0.10	7.61
22.235	20.94	29.48	-0.00	7.71
22.265	20.94	29.48	-0.00	7.71
22.294	20.94	29.48	-0.00	7.71
22.324	20.94	29.48	-0.11	7.60
22.354	20.94	29.48	-0.11	7.60
22.384	20.93	29.47	-0.11	7.60
22.413	20.93	29.47	-0.02	7.68
22.443	20.93	29.47	-0.02	7.68
22.473	20.95	29.49	-0.02	7.68
22.503	20.95	29.49	-0.06	7.64
22.532	20.95	29.49	-0.06	7.64
22.562	20.97	29.51	-0.06	7.64
22.592	20.97	29.51	-0.10	7.61
22.622	20.97	29.51	-0.10	7.61
22.652	20.98	29.52	-0.10	7.61
22.681	20.98	29.52	-0.00	7.71
22.711	20.98	29.52	-0.00	7.71
22.741	20.98	29.52	-0.00	7.71
22.771	20.98	29.52	-0.11	7.60
22.800	20.98	29.52	-0.11	7.60
22.830	20.98	29.52	-0.11	7.60
22.860	20.98	29.52	-0.02	7.68
22.890	20.98	29.52	-0.02	7.68
22.919	21.00	29.54	-0.02	7.68
22.949	21.00	29.54	-0.06	7.64
22.979	21.00	29.54	-0.06	7.64
23.009	21.02	29.56	-0.06	7.64
23.038	21.02	29.56	-0.10	7.60
23.068	21.02	29.56	-0.10	7.60
23.098	21.02	29.56	-0.10	7.60
23.128	21.02	29.56	-0.00	7.70
23.157	21.02	29.56	-0.00	7.70
23.187	21.00	29.54	-0.00	7.70
23.217	21.00	29.54	-0.11	7.60
23.247	21.00	29.54	-0.11	7.60
23.276	21.00	29.54	-0.11	7.60
23.306	21.00	29.54	-0.03	7.68
23.336	21.00	29.54	-0.03	7.68
23.366	21.01	29.55	-0.03	7.68
23.396	21.01	29.55	-0.07	7.64
23.425	21.01	29.55	-0.07	7.64
23.455	21.03	29.57	-0.07	7.64
23.485	21.03	29.57	-0.10	7.61
23.515	21.03	29.57	-0.10	7.61
23.544	21.04	29.58	-0.10	7.61
23.574	21.04	29.58	-0.00	7.70
23.604	21.04	29.58	-0.00	7.70
23.634	21.02	29.57	-0.00	7.70
23.663	21.02	29.57	-0.11	7.60
23.693	21.02	29.57	-0.11	7.60
23.723	21.00	29.54	-0.11	7.60
23.753	21.00	29.54	-0.03	7.68
23.782	21.00	29.54	-0.03	7.68
23.812	21.00	29.54	-0.03	7.68
23.842	21.00	29.54	-0.06	7.64
23.872	21.00	29.54	-0.06	7.64
23.901	21.00	29.54	-0.06	7.64
23.931	21.00	29.54	-0.10	7.61
23.961	21.00	29.54	-0.10	7.61
23.991	21.01	29.55	-0.10	7.61
24.020	21.01	29.55	-0.00	7.71
24.050	21.01	29.55	-0.00	7.71
24.080	20.98	29.52	-0.00	7.71
24.110	20.98	29.52	-0.11	7.60
24.140	20.98	29.52	-0.11	7.60
24.169	20.99	29.53	-0.11	7.60
24.199	20.99	29.53	-0.02	7.68
24.229	20.99	29.53	-0.02	7.68
24.259	21.00	29.54	-0.02	7.68
24.288	21.00	29.54	-0.07	7.64
24.318	21.00	29.54	-0.07	7.64
24.348	21.01	29.55	-0.07	7.64
24.378	21.01	29.55	-0.10	7.61
24.407	21.01	29.55	-0.10	7.61
24.437	21.04	29.58	-0.10	7.61
24.467	21.04	29.58	-0.00	7.71
24.497	21.04	29.58	-0.00	7.71
24.526	21.02	29.56	-0.00	7.71
24.556	21.02	29.56	-0.11	7.60
24.586	21.02	29.56	-0.11	7.60
24.616	21.01	29.55	-0.11	7.60
24.645	21.01	29.55	-0.02	7.68
24.675	21.01	29.55	-0.02	7.68
24.705	21.01	29.55	-0.02	7.68
24.735	21.01	29.55	-0.07	7.64
24.765	21.01	29.55	-0.07	7.64
24.794	21.03	29.57	-0.07	7.64
24.824	21.03	29.57	-0.10	7.61
24.854	21.03	29.57	-0.10	7.61
24.884	21.06	29.60	-0.10	7.61
24.913	21.06	29.60	-0.01	7.70
24.943	21.06	29.60	-0.01	7.70
24.973	21.04	29.58	-0.01	7.70
25.003	21.04	29.58	-0.11	7.60
25.032	21.04	29.58	-0.11	7.60
25.062	21.02	29.56	-0.11	7.60
25.092	21.02	29.56	-0.03	7.68
25.122	21.02	29.56	-0.03	7.68
25.151	21.03	29.57	-0.03	7.68
25.181	21.03	29.57	-0.07	7.64
25.211	21.03	29.57	-0.07	7.64
25.241	21.02	29.56	-0.07	7.64
25.270	21.02	29.56	-0.10	7.61
25.300	21.02	29.56	-0.10	7.61
25.330	21.04	29.58	-0.10	7.61
25.360	21.04	29.58	0.00	7.71
25.390	21.04	29.58	0.00	7.71
25.419	21.06	29.60	0.00	7.71
25.449	21.06	29.60	-0.11	7.60
25.479	21.06	29.60	-0.11	7.60
25.508	21.06	29.60	-0.11	7.60
25.538	21.06	29.60	-0.02	7.69
25.568	21.06	29.60	-0.02	7.69
25.598	21.04	29.58	-0.02	7.69
25.627	21.04	29.58	-0.07	7.64
25.657	21.04	29.58	-0.07	7.64
25.687	21.03	29.57	-0.07	7.64
25.717	21.03	29.57	-0.10	7.61
25.747	21.03	29.57	-0.10	7.61
25.776	21.04	29.58	-0.10	7.61
25.806	21.04	29.58	-0.00	7.70
25.836	21.04	29.58	-0.00	7.70
25.866	21.04	29.58	-0.00	7.70
25.895	21.04	29.58	-0.11	7.60
25.925	21.04	29.58	-0.11	7.60
25.955	21.02	29.56	-0.11	7.60
25.985	21.02	29.56	-0.03	7.68
26.014	21.02	29.56	-0.03	7.68
26.044	21.02	29.56	-0.03	7.68
26.074	21.02	29.56	-0.06	7.64
26.104	21.02	29.56	-0.06	7.64
26.133	21.02	29.56	-0.06	7.64
26.163	21.02	29.56	-0.10	7.61
26.193	21.02	29.56	-0.10	7.61
26.223	21.06	29.60	-0.10	7.61
26.252	21.06	29.60	0.00	7.71
26.282	21.06	29.60	0.00	7.71
26.312	21.11	29.65	0.00	7.71
26.342	21.11	29.65	-0.11	7.60
26.371	21.11	29.65	-0.11	7.60
26.401	21.08	29.62	-0.11	7.60
26.431	21.08	29.62	-0.03	7.68
26.461	21.08	29.62	-0.03	7.68
26.490	21.08	29.62	-0.03	7.68
26.520	21.08	29.62	-0.07	7.64
26.550	21.08	29.62	-0.07	7.64
26.580	21.07	29.61	-0.07	7.64
26.609	21.07	29.61	-0.10	7.61
26.639	21.07	29.61	-0.10	7.61
26.669	21.08	29.62	-0.10	7.61
26.699	21.08	29.62	-0.00	7.70
26.728	21.08	29.62	-0.00	7.70
26.758	21.09	29.63	-0.00	7.70
26.788	21.09	29.63	-0.11	7.60
26.818	21.09	29.63	-0.11	7.60
26.847	21.08	29.62	-0.11	7.60
26.877	21.08	29.62	-0.02	7.69
26.907	21.08	29.62	-0.02	7.69
26.937	21.08	29.62	-0.02	7.69
26.967	21.08	29.62	-0.07	7.64
26.996	21.08	29.62	-0.07	7.64
27.026	21.08	29.62	-0.07	7.64
27.056	21.08	29.62	-0.10	7.61
27.086	21.08	29.62	-0.10	7.61
27.115	21.07	29.61	-0.10	7.61
27.145	21.07	29.61	0.00	7.71
27.175	21.07	29.61	0.00	7.71
27.205	21.10	29.64	0.00	7.71
27.234	21.10	29.64	-0.11	7.60
27.264	21.10	29.64	-0.11	7.60
27.294	21.08	29.62	-0.11	7.60
27.324	21.08	29.62	-0.02	7.68
27.353	21.08	29.62	-0.02	7.68
27.383	21.09	29.63	-0.02	7.68
27.413	21.09	29.63	-0.07	7.64
27.443	21.09	29.63	-0.07	7.64
27.472	21.07	29.62	-0.07	7.64
27.502	21.07	29.62	-0.10	7.61
27.532	21.07	29.62	-0.10	7.61
27.562	21.09	29.63	-0.10	7.61
27.591	21.09	29.63	-0.00	7.71
27.621	21.09	29.63	-0.00	7.71
27.651	21.05	29.59	-0.00	7.71
27.681	21.05	29.59	-0.11	7.60
27.710	21.05	29.59	-0.11	7.60
27.740	21.06	29.60	-0.11	7.60
27.770	21.06	29.60	-0.02	7.69
27.800	21.06	29.60	-0.02	7.69
27.829	21.05	29.59	-0.02	7.69
27.859	21.05	29.59	-0.07	7.64
27.889	21.05	29.59	-0.07	7.64
27.919	21.03	29.57	-0.07	7.64
27.948	21.03	29.57	-0.10	7.61
27.978	21.03	29.57	-0.10	7.61
28.008	21.03	29.57	-0.10	7.61
28.038	21.03	29.57	0.00	7.71
28.068	21.03	29.57	0.00	7.71
28.097	21.03	29.57	0.00	7.71
28.127	21.03	29.57	-0.11	7.60
28.157	21.03	29.57	-0.11	7.60
28.186	21.02	29.57	-0.11	7.60
28.216	21.02	29.57	-0.03	7.68
28.246	21.02	29.57	-0.03	7.68
28.276	21.01	29.55	-0.03	7.68
28.306	21.01	29.55	-0.06	7.64
28.335	21.01	29.55	-0.06	7.64
28.365	21.00	29.54	-0.06	7.64
28.395	21.00	29.54	-0.10	7.61
28.425	21.00	29.54	-0.10	7.61
28.454	21.04	29.58	-0.10	7.61
28.484	21.04	29.58	0.00	7.71
28.514	21.04	29.58	0.00	7.71
28.544	21.03	29.57	0.00	7.71
28.573	21.03	29.57	-0.11	7.60
28.603	21.03	29.57	-0.11	7.60
28.633	21.01	29.55	-0.11	7.60
28.663	21.01	29.55	-0.02	7.69
28.692	21.01	29.55	-0.02	7.69
28.722	21.01	29.55	-0.02	7.69
28.752	21.01	29.55	-0.07	7.64
28.782	21.01	29.55	-0.07	7.64
28.811	21.01	29.55	-0.07	7.64
28.841	21.01	29.55	-0.10	7.60
28.871	21.01	29.55	-0.10	7.60
28.901	21.01	29.55	-0.10	7.60
28.930	21.01	29.55	-0.00	7.71
28.960	21.01	29.55	-0.00	7.71
28.990	21.05	29.59	-0.00	7.71
29.020	21.05	29.59	-0.11	7.60
29.049	21.05	29.59	-0.11	7.60
29.079	21.04	29.58	-0.11	7.60
29.109	21.04	29.58	-0.02	7.68
29.139	21.04	29.58	-0.02	7.68
29.168	21.02	29.57	-0.02	7.68
29.198	21.02	29.57	-0.06	7.65
29.228	21.02	29.57	-0.06	7.65
29.258	21.02	29.56	-0.06	7.65
29.288	21.02	29.56	-0.11	7.60
29.317	21.02	29.56	-0.11	7.60
29.347	21.01	29.55	-0.11	7.60
29.377	21.01	29.55	-0.00	7.71
29.407	21.01	29.55	-0.00	7.71
29.436	21.03	29.57	-0.00	7.71
29.466	21.03	29.57	-0.11	7.60
29.496	21.03	29.57	-0.11	7.60
29.526	21.00	29.54	-0.11	7.60
29.555	21.00	29.54	-0.03	7.68
29.585	21.00	29.54	-0.03	7.68
29.615	21.03	29.57	-0.03	7.68
29.645	21.03	29.57	-0.06	7.64
29.674	21.03	29.57	-0.06	7.64
29.704	21.02	29.56	-0.06	7.64
29.734	21.02	29.56	-0.11	7.60
29.764	21.02	29.56	-0.11	7.60
29.793	21.02	29.56	-0.11	7.60
29.823	21.02	29.56	-0.00	7.70
29.853	21.02	29.56	-0.00	7.70
29.883	21.04	29.58	-0.00	7.70
29.912	21.04	29.58	-0.11	7.60
29.942	21.04	29.58	-0.11	7.60
29.972	21.05	29.59	-0.11	7.60
30.002	21.05	29.59	-0.02	7.68
30.032	21.05	29.59	-0.02	7.68
30.061	21.02	29.56	-0.02	7.68
30.091	21.02	29.56	-0.06	7.64
30.121	21.02	29.56	-0.06	7.64
30.151	21.02	29.56	-0.06	7.64
30.180	21.02	29.56	-0.11	7.60
30.210	21.02	29.56	-0.11	7.60
30.240	21.03	29.57	-0.11	7.60
30.270	21.03	29.57	-0.01	7.70
30.299	21.03	29.57	-0.01	7.70
30.329	21.03	29.57	-0.01	7.70
30.359	21.03	29.57	-0.11	7.60
30.389	21.03	29.57	-0.11	7.60
30.418	21.02	29.57	-0.11	7.60
30.448	21.02	29.57	-0.02	7.69
30.478	21.02	29.57	-0.02	7.69
30.508	21.01	29.55	-0.02	7.69
30.537	21.01	29.55	-0.06	7.65
30.567	21.01	29.55	-0.06	7.65
30.597	21.02	29.56	-0.06	7.65
30.627	21.02	29.56	-0.11	7.60
30.657	21.02	29.56	-0.11	7.60
30.686	21.01	29.55	-0.11	7.60
30.716	21.01	29.55	0.00	7.71
30.746	21.01	29.55	0.00	7.71
30.776	21.03	29.57	0.00	7.71
30.805	21.03	29.57	-0.11	7.60
30.835	21.03	29.57	-0.11	7.60
30.865	21.04	29.58	-0.11	7.60
30.895	21.04	29.58	-0.02	7.68
30.924	21.04	29.58	-0.02	7.68
30.954	21.03	29.57	-0.02	7.68
30.984	21.03	29.57	-0.05	7.65
31.014	21.03	29.57	-0.05	7.65
31.043	21.04	29.58	-0.05	7.65
31.073	21.04	29.58	-0.11	7.60
31.103	21.04	29.58	-0.11	7.60
31.133	21.03	29.57	-0.11	7.60
31.162	21.03	29.57	-0.00	7.70
31.192	21.03	29.57	-0.00	7.70
31.222	21.04	29.58	-0.00	7.70
31.252	21.04	29.58	-0.10	7.60
31.281	21.04	29.58	-0.10	7.60
31.311	21.03	29.57	-0.10	7.60
31.341	21.03	29.57	-0.03	7.68
31.371	21.03	29.57	-0.03	7.68
31.400	21.01	29.55	-0.03	7.68
31.430	21.01	29.55	-0.05	7.65
31.460	21.01	29.55	-0.05	7.65
31.490	21.04	29.58	-0.05	7.65
31.520	21.04	29.58	-0.11	7.60
31.549	21.04	29.58	-0.11	7.60
31.579	21.04	29.58	-0.11	7.60
31.609	21.04	29.58	0.00	7.71
31.639	21.04	29.58	0.00	7.71
31.668	21.03	29.57	0.00	7.71
31.698	21.03	29.57	-0.10	7.61
31.728	21.03	29.57	-0.10	7.61
31.758	21.06	29.60	-0.10	7.61
31.787	21.06	29.60	-0.02	7.68
31.817	21.06	29.60	-0.02	7.68
31.847	21.02	29.57	-0.02	7.68
31.877	21.02	29.57	-0.05	7.65
31.906	21.02	29.57	-0.05	7.65
31.936	21.02	29.56	-0.05	7.65
31.966	21.02	29.56	-0.11	7.60
31.996	21.02	29.56	-0.11	7.60
32.025	20.99	29.53	-0.11	7.60
32.055	20.99	29.53	-0.00	7.70
32.085	20.99	29.53	-0.00	7.70
32.115	21.02	29.56	-0.00	7.70
32.144	21.02	29.56	-0.10	7.60
32.174	21.02	29.56	-0.10	7.60
32.204	20.99	29.53	-0.10	7.60
32.234	20.99	29.53	-0.03	7.68
32.263	20.99	29.53	-0.03	7.68
32.293	20.98	29.52	-0.03	7.68
32.323	20.98	29.52	-0.05	7.66
32.353	20.98	29.52	-0.05	7.66
32.382	20.99	29.53	-0.05	7.66
32.412	20.99	29.53	-0.11	7.60
32.442	20.99	29.53	-0.11	7.60
32.472	21.02	29.56	-0.11	7.60
32.502	21.02	29.56	-0.00	7.71
32.531	21.02	29.56	-0.00	7.71
32.561	21.03	29.57	-0.00	7.71
32.591	21.03	29.57	-0.10	7.61
32.621	21.03	29.57	-0.10	7.61
32.650	21.05	29.59	-0.10	7.61
32.680	21.05	29.59	-0.03	7.68
32.710	21.05	29.59	-0.03	7.68
32.740	21.02	29.57	-0.03	7.68
32.769	21.02	29.57	-0.05	7.66
32.799	21.02	29.57	-0.05	7.66
32.829	21.04	29.58	-0.05	7.66
32.859	21.04	29.58	-0.11	7.60
32.888	21.04	29.58	-0.11	7.60
32.918	21.01	29.55	-0.11	7.60
32.948	21.01	29.55	-0.01	7.70
32.978	21.01	29.55	-0.01	7.70
33.007	21.04	29.58	-0.01	7.70
33.037	21.04	29.58	-0.10	7.61
33.067	21.04	29.58	-0.10	7.61
33.097	21.04	29.58	-0.10	7.61
33.127	21.04	29.58	-0.03	7.68
33.156	21.04	29.58	-0.03	7.68
33.186	21.05	29.59	-0.03	7.68
33.216	21.05	29.59	-0.05	7.66
33.246	21.05	29.59	-0.05	7.66
33.275	21.04	29.58	-0.05	7.66
33.305	21.04	29.58	-0.11	7.60
33.335	21.04	29.58	-0.11	7.60
33.365	21.04	29.58	-0.11	7.60
33.394	21.04	29.58	-0.01	7.70
33.424	21.04	29.58	-0.01	7.70
33.454	21.04	29.58	-0.01	7.70
33.484	21.04	29.58	-0.10	7.60
33.513	21.04	29.58	-0.10	7.60
33.543	21.05	29.59	-0.10	7.60
33.573	21.05	29.59	-0.03	7.68
33.603	21.05	29.59	-0.03	7.68
33.632	21.04	29.58	-0.03	7.68
33.662	21.04	29.58	-0.04	7.67
33.692	21.04	29.58	-0.04	7.67
33.722	21.03	29.57	-0.04	7.67
33.751	21.03	29.57	-0.11	7.60
33.781	21.03	29.57	-0.11	7.60
33.811	21.04	29.58	-0.11	7.60
33.841	21.04	29.58	-0.00	7.70
33.871	21.04	29.58	-0.00	7.70
33.900	21.07	29.61	-0.00	7.70
33.930	21.07	29.61	-0.10	7.61
33.960	21.07	29.61	-0.10	7.61
33.990	21.06	29.60	-0.10	7.61
34.019	21.06	29.60	-0.03	7.68
34.049	21.06	29.60	-0.03	7.68
34.079	21.05	29.59	-0.03	7.68
34.109	21.05	29.59	-0.04	7.67
34.138	21.05	29.59	-0.04	7.67
34.168	21.04	29.58	-0.04	7.67
34.198	21.04	29.58	-0.11	7.59
34.228	21.04	29.58	-0.11	7.59
34.257	21.04	29.58	-0.11	7.59
34.287	21.04	29.58	-0.00	7.71
34.317	21.04	29.58	-0.00	7.71
34.347	21.05	29.59	-0.00	7.71
34.376	21.05	29.59	-0.10	7.61
34.406	21.05	29.59	-0.10	7.61
34.436	21.05	29.59	-0.10	7.61
34.466	21.05	29.59	-0.04	7.67
34.496	21.05	29.59	-0.04	7.67
34.525	21.05	29.59	-0.04	7.67
34.555	21.05	29.59	-0.04	7.67
34.585	21.05	29.59	-0.04	7.67
34.615	21.04	29.58	-0.04	7.67
34.644	21.04	29.58	-0.12	7.59
34.674	21.04	29.58	-0.12	7.59
34.704	21.03	29.57	-0.12	7.59
34.734	21.03	29.57	-0.00	7.70
34.763	21.03	29.57	-0.00	7.70
34.793	21.04	29.58	-0.00	7.70
34.823	21.04	29.58	-0.10	7.61
34.853	21.04	29.58	-0.10	7.61
34.882	21.01	29.55	-0.10	7.61
34.912	21.01	29.55	-0.04	7.67
34.942	21.01	29.55	-0.04	7.67
34.972	21.00	29.54	-0.04	7.67
35.001	21.00	29.54	-0.02	7.68
35.031	21.00	29.54	-0.02	7.68
35.061	21.01	29.55	-0.02	7.68
35.091	21.01	29.55	-0.11	7.59
35.120	21.01	29.55	-0.11	7.59
35.150	21.01	29.55	-0.11	7.59
35.180	21.01	29.55	-0.00	7.70
35.210	21.01	29.55	-0.00	7.70
35.240	21.02	29.56	-0.00	7.70
35.269	21.02	29.56	-0.10	7.61
35.299	21.02	29.56	-0.10	7.61
35.329	21.02	29.57	-0.10	7.61
35.359	21.02	29.57	-0.05	7.66
35.388	21.02	29.57	-0.05	7.66
35.418	21.00	29.54	-0.05	7.66
35.448	21.00	29.54	-0.02	7.68
35.478	21.00	29.54	-0.02	7.68
35.507	20.99	29.53	-0.02	7.68
35.537	20.99	29.53	-0.11	7.60
35.567	20.99	29.53	-0.11	7.60
35.597	20.99	29.53	-0.11	7.60
35.626	20.99	29.53	0.00	7.71
35.656	20.99	29.53	0.00	7.71
35.686	20.99	29.53	0.00	7.71
35.716	20.99	29.53	-0.10	7.61
35.745	20.99	29.53	-0.10	7.61
35.775	21.04	29.58	-0.10	7.61
35.805	21.04	29.58	-0.05	7.66
35.835	21.04	29.58	-0.05	7.66
35.864	21.00	29.54	-0.05	7.66
35.894	21.00	29.54	-0.02	7.69
35.924	21.00	29.54	-0.02	7.69
35.954	21.00	29.54	-0.02	7.69
35.983	21.00	29.54	-0.12	7.59
36.013	21.00	29.54	-0.12	7.59
36.043	21.03	29.57	-0.12	7.59
36.073	21.03	29.57	-0.01	7.70
36.102	21.03	29.57	-0.01	7.70
36.132	21.01	29.55	-0.01	7.70
36.162	21.01	29.55	-0.09	7.62
36.192	21.01	29.55	-0.09	7.62
36.222	21.02	29.56	-0.09	7.62
36.251	21.02	29.56	-0.05	7.66
36.281	21.02	29.56	-0.05	7.66
36.311	21.02	29.56	-0.05	7.66
36.341	21.02	29.56	-0.02	7.69
36.370	21.02	29.56	-0.02	7.69
36.400	21.01	29.55	-0.02	7.69
36.430	21.01	29.55	-0.12	7.59
36.460	21.01	29.55	-0.12	7.59
36.489	21.01	29.55	-0.12	7.59
36.519	21.01	29.55	-0.01	7.70
36.549	21.01	29.55	-0.01	7.70
36.579	21.02	29.56	-0.01	7.70
36.608	21.02	29.56	-0.09	7.62
36.638	21.02	29.56	-0.09	7.62
36.668	21.04	29.58	-0.09	7.62
36.698	21.04	29.58	-0.06	7.65
36.727	21.04	29.58	-0.06	7.65
36.757	21.03	29.57	-0.06	7.65
36.787	21.03	29.57	-0.01	7.69
36.817	21.03	29.57	-0.01	7.69
36.846	21.02	29.56	-0.01	7.69
36.876	21.02	29.56	-0.11	7.59
36.906	21.02	29.56	-0.11	7.59
36.936	21.04	29.58	-0.11	7.59
36.965	21.04	29.58	-0.01	7.70
36.995	21.04	29.58	-0.01	7.70
37.025	21.04	29.58	-0.01	7.70
37.055	21.04	29.58	-0.09	7.62
37.084	21.04	29.58	-0.09	7.62
37.114	21.03	29.57	-0.09	7.62
37.144	21.03	29.57	-0.06	7.65
37.174	21.03	29.57	-0.06	7.65
37.204	21.03	29.57	-0.06	7.65
37.233	21.03	29.57	-0.01	7.70
37.263	21.03	29.57	-0.01	7.70
37.293	21.02	29.56	-0.01	7.70
37.323	21.02	29.56	-0.11	7.60
37.352	21.02	29.56	-0.11	7.60
37.382	21.02	29.56	-0.11	7.60
37.412	21.02	29.56	-0.01	7.69
37.442	21.02	29.56	-0.01	7.69
37.471	21.02	29.56	-0.01	7.69
37.501	21.02	29.56	-0.09	7.62
37.531	21.02	29.56	-0.09	7.62
37.561	21.04	29.58	-0.09	7.62
37.590	21.04	29.58	-0.06	7.64
37.620	21.04	29.58	-0.06	7.64
37.650	21.05	29.59	-0.06	7.64
37.680	21.05	29.59	-0.00	7.70
37.709	21.05	29.59	-0.00	7.70
37.739	21.02	29.56	-0.00	7.70
37.769	21.02	29.56	-0.12	7.59
37.799	21.02	29.56	-0.12	7.59
37.829	21.04	29.58	-0.12	7.59
37.858	21.04	29.58	-0.01	7.70
37.888	21.04	29.58	-0.01	7.70
37.918	21.02	29.56	-0.01	7.70
37.948	21.02	29.56	-0.09	7.62
37.977	21.02	29.56	-0.09	7.62
38.007	21.03	29.57	-0.09	7.62
38.037	21.03	29.57	-0.07	7.64
38.067	21.03	29.57	-0.07	7.64
38.096	21.05	29.59	-0.07	7.64
38.126	21.05	29.59	-0.00	7.71
38.156	21.05	29.59	-0.00	7.71
38.186	21.02	29.56	-0.00	7.71
38.215	21.02	29.56	-0.11	7.59
38.245	21.02	29.56	-0.11	7.59
38.275	20.99	29.53	-0.11	7.59
38.305	20.99	29.53	-0.01	7.69
38.334	20.99	29.53	-0.01	7.69
38.364	21.00	29.54	-0.01	7.69
38.394	21.00	29.54	-0.09	7.62
38.424	21.00	29.54	-0.09	7.62
38.454	21.04	29.58	-0.09	7.62
38.483	21.04	29.58	-0.07	7.63
38.513	21.04	29.58	-0.07	7.63
38.543	21.03	29.57	-0.07	7.63
38.573	21.03	29.57	-0.00	7.70
38.602	21.03	29.57	-0.00	7.70
38.632	21.02	29.56	-0.00	7.70
38.662	21.02	29.56	-0.12	7.59
38.692	21.02	29.56	-0.12	7.59
38.721	21.02	29.56	-0.12	7.59
38.751	21.02	29.56	-0.01	7.70
38.781	21.02	29.56	-0.01	7.70
38.811	21.02	29.56	-0.01	7.70
38.840	21.02	29.56	-0.09	7.62
38.870	21.02	29.56	-0.09	7.62
38.900	21.01	29.55	-0.09	7.62
38.930	21.01	29.55	-0.08	7.63
38.959	21.01	29.55	-0.08	7.63
38.989	21.03	29.57	-0.08	7.63
39.019	21.03	29.57	-0.01	7.70
39.049	21.03	29.57	-0.01	7.70
39.078	21.03	29.57	-0.01	7.70
39.108	21.03	29.57	-0.12	7.59
39.138	21.03	29.57	-0.12	7.59
39.168	21.02	29.56	-0.12	7.59
39.198	21.02	29.56	-0.02	7.69
39.227	21.02	29.56	-0.02	7.69
39.257	21.01	29.55	-0.02	7.69
39.287	21.01	29.55	-0.08	7.63
39.317	21.01	29.55	-0.08	7.63
39.346	21.05	29.59	-0.08	7.63
39.376	21.05	29.59	-0.08	7.63
39.406	21.05	29.59	-0.08	7.63
39.436	21.05	29.59	-0.08	7.63
39.465	21.05	29.59	-0.01	7.70
39.495	21.05	29.59	-0.01	7.70
39.525	21.05	29.59	-0.01	7.70
39.555	21.05	29.59	-0.11	7.59
39.584	21.05	29.59	-0.11	7.59
39.614	21.07	29.61	-0.11	7.59
39.644	21.07	29.61	-0.02	7.68
39.674	21.07	29.61	-0.02	7.68
39.703	21.09	29.63	-0.02	7.68
39.733	21.09	29.63	-0.08	7.63
39.763	21.09	29.63	-0.08	7.63
39.793	21.09	29.63	-0.08	7.63
39.822	21.09	29.63	-0.09	7.62
39.852	21.09	29.63	-0.09	7.62
39.882	21.10	29.64	-0.09	7.62
39.912	21.10	29.64	-0.00	7.71
39.942	21.10	29.64	-0.00	7.71
39.971	21.07	29.61	-0.00	7.71
40.001	21.07	29.61	-0.11	7.59
40.031	21.07	29.61	-0.11	7.59
40.061	21.06	29.60	-0.11	7.59
40.090	21.06	29.60	-0.02	7.69
40.120	21.06	29.60	-0.02	7.69
40.150	21.03	29.57	-0.02	7.69
40.180	21.03	29.57	-0.08	7.63
40.209	21.03	29.57	-0.08	7.63
40.239	21.08	29.62	-0.08	7.63
40.269	21.08	29.62	-0.10	7.61
40.299	21.08	29.62	-0.10	7.61
40.328	21.08	29.62	-0.10	7.61
40.358	21.08	29.62	-0.01	7.70
40.388	21.08	29.62	-0.01	7.70
40.418	21.07	29.61	-0.01	7.70
40.447	21.07	29.61	-0.12	7.59
40.477	21.07	29.61	-0.12	7.59
40.507	21.07	29.61	-0.12	7.59
40.537	21.07	29.61	-0.03	7.68
40.567	21.07	29.61	-0.03	7.68
40.596	21.09	29.63	-0.03	7.68
40.626	21.09	29.63	-0.07	7.64
40.656	21.09	29.63	-0.07	7.64
40.686	21.08	29.62	-0.07	7.64
40.715	21.08	29.62	-0.10	7.60
40.745	21.08	29.62	-0.10	7.60
40.775	21.09	29.63	-0.10	7.60
40.805	21.09	29.63	-0.00	7.70
40.834	21.09	29.63	-0.00	7.70
40.864	21.07	29.61	-0.00	7.70
40.894	21.07	29.61	-0.11	7.60
40.924	21.07	29.61	-0.11	7.60
40.953	21.06	29.60	-0.11	7.60
40.983	21.06	29.60	-0.02	7.69
41.013	21.06	29.60	-0.02	7.69
41.043	21.05	29.59	-0.02	7.69
41.072	21.05	29.59	-0.07	7.64
41.102	21.05	29.59	-0.07	7.64
41.132	21.07	29.61	-0.07	7.64
41.162	21.07	29.61	-0.11	7.60
41.192	21.07	29.61	-0.11	7.60
41.221	21.06	29.60	-0.11	7.60
41.251	21.06	29.60	-0.01	7.70
41.281	21.06	29.60	-0.01	7.70
41.311	21.06	29.60	-0.01	7.70
41.340	21.06	29.60	-0.11	7.60
41.370	21.06	29.60	-0.11	7.60
41.400	21.04	29.58	-0.11	7.60
41.430	21.04	29.58	-0.02	7.68
41.459	21.04	29.58	-0.02	7.68
41.489	21.07	29.61	-0.02	7.68
41.519	21.07	29.61	-0.06	7.65
41.549	21.07	29.61	-0.06	7.65
41.578	21.07	29.62	-0.06	7.65
41.608	21.07	29.62	-0.11	7.59
41.638	21.07	29.62	-0.11	7.59
41.668	21.08	29.62	-0.11	7.59
41.697	21.08	29.62	-0.00	7.71
41.727	21.08	29.62	-0.00	7.71
41.757	21.07	29.61	-0.00	7.71
41.787	21.07	29.61	-0.11	7.59
41.816	21.07	29.61	-0.11	7.59
41.846	21.05	29.59	-0.11	7.59
41.876	21.05	29.59	-0.03	7.68
41.906	21.05	29.59	-0.03	7.68
41.935	21.05	29.59	-0.03	7.68
41.965	21.05	29.59	-0.05	7.66
41.995	21.05	29.59	-0.05	7.66
42.025	21.03	29.57	-0.05	7.66
42.055	21.03	29.57	-0.12	7.59
42.084	21.03	29.57	-0.12	7.59
42.114	21.09	29.63	-0.12	7.59
42.144	21.09	29.63	-0.00	7.70
42.174	21.09	29.63	-0.00	7.70
42.203	21.06	29.60	-0.00	7.70
42.233	21.06	29.60	-0.10	7.60
42.263	21.06	29.60	-0.10	7.60
42.293	21.05	29.59	-0.10	7.60
42.322	21.05	29.59	-0.04	7.67
42.352	21.05	29.59	-0.04	7.67
42.382	21.07	29.62	-0.04	7.67
42.412	21.07	29.62	-0.04	7.67
42.441	21.07	29.62	-0.04	7.67
42.471	21.08	29.62	-0.04	7.67
42.501	21.08	29.62	-0.11	7.60
42.531	21.08	29.62	-0.11	7.60
42.560	21.11	29.65	-0.11	7.60
42.590	21.11	29.65	-0.01	7.70
42.620	21.11	29.65	-0.01	7.70
42.650	21.09	29.63	-0.01	7.70
42.679	21.09	29.63	-0.10	7.60
42.709	21.09	29.63	-0.10	7.60
42.739	21.10	29.64	-0.10	7.60
42.769	21.10	29.64	-0.03	7.68
42.799	21.10	29.64	-0.03	7.68
42.828	21.09	29.63	-0.03	7.68
42.858	21.09	29.63	-0.04	7.67
42.888	21.09	29.63	-0.04	7.67
42.918	21.08	29.62	-0.04	7.67
42.947	21.08	29.62	-0.11	7.60
42.977	21.08	29.62	-0.11	7.60
43.007	21.09	29.63	-0.11	7.60
43.037	21.09	29.63	-0.00	7.71
43.066	21.09	29.63	-0.00	7.71
43.096	21.06	29.60	-0.00	7.71
43.126	21.06	29.60	-0.10	7.61
43.156	21.06	29.60	-0.10	7.61
43.185	21.04	29.58	-0.10	7.61
43.215	21.04	29.58	-0.04	7.67
43.245	21.04	29.58	-0.04	7.67
43.275	21.04	29.58	-0.04	7.67
43.304	21.04	29.58	-0.03	7.68
43.334	21.04	29.58	-0.03	7.68
43.364	21.05	29.59	-0.03	7.68
43.394	21.05	29.59	-0.11	7.59
43.424	21.05	29.59	-0.11	7.59
43.453	21.05	29.59	-0.11	7.59
43.483	21.05	29.59	-0.01	7.70
43.513	21.05	29.59	-0.01	7.70
43.543	21.05	29.59	-0.01	7.70
43.572	21.05	29.59	-0.10	7.61
43.602	21.05	29.59	-0.10	7.61
43.632	21.04	29.58	-0.10	7.61
43.662	21.04	29.58	-0.04	7.67
43.691	21.04	29.58	-0.04	7.67
43.721	21.03	29.57	-0.04	7.67
43.751	21.03	29.57	-0.02	7.69
43.781	21.03	29.57	-0.02	7.69
43.810	21.03	29.57	-0.02	7.69
43.840	21.03	29.57	-0.12	7.59
43.870	21.03	29.57	-0.12	7.59
43.900	21.04	29.58	-0.12	7.59
43.929	21.04	29.58	-0.01	7.70
43.959	21.04	29.58	-0.01	7.70
43.989	21.04	29.58	-0.01	7.70
44.019	21.04	29.58	-0.10	7.61
44.049	21.04	29.58	-0.10	7.61
44.078	21.04	29.58	-0.10	7.61
44.108	21.04	29.58	-0.05	7.65
44.138	21.04	29.58	-0.05	7.65
44.168	21.05	29.59	-0.05	7.65
44.197	21.05	29.59	-0.01	7.69
44.227	21.05	29.59	-0.01	7.69
44.257	21.02	29.56	-0.01	7.69
44.287	21.02	29.56	-0.12	7.59
44.316	21.02	29.56	-0.12	7.59
44.346	21.03	29.57	-0.12	7.59
44.376	21.03	29.57	-0.01	7.70
44.406	21.03	29.57	-0.01	7.70
44.435	21.04	29.58	-0.01	7.70
44.465	21.04	29.58	-0.09	7.62
44.495	21.04	29.58	-0.09	7.62
44.525	21.03	29.57	-0.09	7.62
44.554	21.03	29.57	-0.06	7.65
44.584	21.03	29.57	-0.06	7.65
44.614	21.03	29.57	-0.06	7.65
44.644	21.03	29.57	-0.01	7.70
44.673	21.03	29.57	-0.01	7.70
44.703	21.02	29.56	-0.01	7.70
44.733	21.02	29.56	-0.11	7.60
44.763	21.02	29.56	-0.11	7.60
44.793	21.04	29.58	-0.11	7.60
44.822	21.04	29.58	-0.01	7.70
44.852	21.04	29.58	-0.01	7.70
44.882	21.06	29.60	-0.01	7.70
44.912	21.06	29.60	-0.09	7.62
44.941	21.06	29.60	-0.09	7.62
44.971	21.05	29.59	-0.09	7.62
45.001	21.05	29.59	-0.07	7.64
45.031	21.05	29.59	-0.07	7.64
45.060	21.04	29.58	-0.07	7.64
45.090	21.04	29.58	-0.00	7.70
45.120	21.04	29.58	-0.00	7.70
45.150	21.04	29.58	-0.00	7.70
45.179	21.04	29.58	-0.12	7.59
45.209	21.04	29.58	-0.12	7.59
45.239	21.04	29.58	-0.12	7.59
45.269	21.04	29.58	-0.01	7.69
45.299	21.04	29.58	-0.01	7.69
45.328	21.07	29.61	-0.01	7.69
45.358	21.07	29.61	-0.09	7.62
45.388	21.07	29.61	-0.09	7.62
45.418	21.05	29.59	-0.09	7.62
45.447	21.05	29.59	-0.07	7.63
45.477	21.05	29.59	-0.07	7.63
45.507	21.05	29.59	-0.07	7.63
45.537	21.05	29.59	-0.01	7.70
45.566	21.05	29.59	-0.01	7.70
45.596	21.00	29.54	-0.01	7.70
45.626	21.00	29.54	-0.12	7.59
45.656	21.00	29.54	-0.12	7.59
45.685	21.01	29.55	-0.12	7.59
45.715	21.01	29.55	-0.02	7.69
45.745	21.01	29.55	-0.02	7.69
45.775	21.01	29.55	-0.02	7.69
45.804	21.01	29.55	-0.08	7.63
45.834	21.01	29.55	-0.08	7.63
45.864	21.00	29.54	-0.08	7.63
45.894	21.00	29.54	-0.08	7.63
45.923	21.00	29.54	-0.08	7.63
45.953	21.01	29.55	-0.08	7.63
45.983	21.01	29.55	-0.00	7.71
46.013	21.01	29.55	-0.00	7.71
46.043	21.02	29.56	-0.00	7.71
46.072	21.02	29.56	-0.12	7.59
46.102	21.02	29.56	-0.12	7.59
46.132	21.05	29.59	-0.12	7.59
46.162	21.05	29.59	-0.02	7.69
46.191	21.05	29.59	-0.02	7.69
46.221	21.05	29.59	-0.02	7.69
46.251	21.05	29.59	-0.08	7.63
46.281	21.05	29.59	-0.08	7.63
46.310	21.04	29.58	-0.08	7.63
46.340	21.04	29.58	-0.09	7.62
46.370	21.04	29.58	-0.09	7.62
46.400	21.02	29.56	-0.09	7.62
46.429	21.02	29.56	-0.00	7.71
46.459	21.02	29.56	-0.00	7.71
46.489	21.02	29.56	-0.00	7.71
46.519	21.02	29.56	-0.11	7.59
46.548	21.02	29.56	-0.11	7.59
46.578	21.03	29.57	-0.11	7.59
46.608	21.03	29.57	-0.02	7.69
46.638	21.03	29.57	-0.02	7.69
46.667	21.04	29.58	-0.02	7.69
46.697	21.04	29.58	-0.08	7.63
46.727	21.04	29.58	-0.08	7.63
46.757	21.03	29.57	-0.08	7.63
46.787	21.03	29.57	-0.10	7.61
46.816	21.03	29.57	-0.10	7.61
46.846	21.03	29.57	-0.10	7.61
46.876	21.03	29.57	-0.00	7.70
46.906	21.03	29.57	-0.00	7.70
46.935	21.04	29.58	-0.00	7.70
46.965	21.04	29.58	-0.12	7.59
46.995	21.04	29.58	-0.12	7.59
47.025	21.03	29.57	-0.12	7.59
47.054	21.03	29.57	-0.03	7.68
47.084	21.03	29.57	-0.03	7.68
47.114	21.04	29.58	-0.03	7.68
47.144	21.04	29.58	-0.07	7.64
47.173	21.04	29.58	-0.07	7.64
47.203	21.05	29.59	-0.07	7.64
47.233	21.05	29.59	-0.10	7.61
47.263	21.05	29.59	-0.10	7.61
47.292	21.01	29.55	-0.10	7.61
47.322	21.01	29.55	-0.01	7.70
47.352	21.01	29.55	-0.01	7.70
47.382	21.03	29.57	-0.01	7.70
47.412	21.03	29.57	-0.11	7.60
47.441	21.03	29.57	-0.11	7.60
47.471	21.02	29.56	-0.11	7.60
47.501	21.02	29.56	-0.03	7.68
47.531	21.02	29.56	-0.03	7.68
47.560	21.06	29.60	-0.03	7.68
47.590	21.06	29.60	-0.07	7.64
47.620	21.06	29.60	-0.07	7.64
47.650	21.04	29.58	-0.07	7.64
47.679	21.04	29.58	-0.10	7.60
47.709	21.04	29.58	-0.10	7.60
47.739	21.02	29.56	-0.10	7.60
47.769	21.02	29.56	-0.01	7.70
47.798	21.02	29.56	-0.01	7.70
47.828	21.04	29.58	-0.01	7.70
47.858	21.04	29.58	-0.11	7.60
47.888	21.04	29.58	-0.11	7.60
47.917	21.02	29.56	-0.11	7.60
47.947	21.02	29.56	-0.03	7.68
47.977	21.02	29.56	-0.03	7.68
48.007	21.03	29.57	-0.03	7.68
48.036	21.03	29.57	-0.06	7.64
48.066	21.03	29.57	-0.06	7.64
48.096	21.02	29.56	-0.06	7.64
48.126	21.02	29.56	-0.11	7.60
48.155	21.02	29.56	-0.11	7.60
48.185	20.99	29.53	-0.11	7.60
48.215	20.99	29.53	-0.00	7.70
48.245	20.99	29.53	-0.00	7.70
48.275	20.99	29.53	-0.00	7.70
48.304	20.99	29.53	-0.11	7.60
48.334	20.99	29.53	-0.11	7.60
48.364	20.99	29.53	-0.11	7.60
48.394	20.99	29.53	-0.03	7.68
48.423	20.99	29.53	-0.03	7.68
48.453	21.05	29.59	-0.03	7.68
48.483	21.05	29.59	-0.05	7.65
48.513	21.05	29.59	-0.05	7.65
48.542	21.04	29.58	-0.05	7.65
48.572	21.04	29.58	-0.11	7.60
48.602	21.04	29.58	-0.11	7.60
48.632	21.05	29.59	-0.11	7.60
48.661	21.05	29.59	-0.00	7.70
48.691	21.05	29.59	-0.00	7.70
48.721	21.04	29.58	-0.00	7.70
48.751	21.04	29.58	-0.10	7.60
48.781	21.04	29.58	-0.10	7.60
48.810	21.04	29.58	-0.10	7.60
48.840	21.04	29.58	-0.03	7.68
48.870	21.04	29.58	-0.03	7.68
48.900	21.05	29.59	-0.03	7.68
48.929	21.05	29.59	-0.05	7.66
48.959	21.05	29.59	-0.05	7.66
48.989	21.04	29.58	-0.05	7.66
49.019	21.04	29.58	-0.12	7.59
49.048	21.04	29.58	-0.12	7.59
49.078	21.03	29.57	-0.12	7.59
49.108	21.03	29.57	-0.01	7.70
49.138	21.03	29.57	-0.01	7.70
49.167	21.05	29.59	-0.01	7.70
49.197	21.05	29.59	-0.10	7.61
49.227	21.05	29.59	-0.10	7.61
49.257	21.01	29.55	-0.10	7.61
49.286	21.01	29.55	-0.03	7.68
49.316	21.01	29.55	-0.03	7.68
49.346	21.04	29.58	-0.03	7.68
49.376	21.04	29.58	-0.04	7.67
49.405	21.04	29.58	-0.04	7.67
49.435	21.04	29.58	-0.04	7.67
49.465	21.04	29.58	-0.12	7.59
49.495	21.04	29.58	-0.12	7.59
49.525	21.03	29.57	-0.12	7.59
49.554	21.03	29.57	-0.00	7.70
49.584	21.03	29.57	-0.00	7.70
49.614	21.04	29.58	-0.00	7.70
49.644	21.04	29.58	-0.10	7.60
49.673	21.04	29.58	-0.10	7.60
49.703	21.03	29.57	-0.10	7.60
49.733	21.03	29.57	-0.03	7.68
49.763	21.03	29.57	-0.03	7.68
49.792	21.05	29.59	-0.03	7.68
49.822	21.05	29.59	-0.04	7.67
49.852	21.05	29.59	-0.04	7.67
49.882	21.05	29.59	-0.04	7.67
49.911	21.05	29.59	-0.12	7.59
49.941	21.05	29.59	-0.12	7.59
49.971	21.03	29.57	-0.12	7.59
50.001	21.03	29.57	-0.00	7.70
50.030	21.03	29.57	-0.00	7.70
50.060	21.01	29.55	-0.00	7.70
50.090	21.01	29.55	-0.10	7.61
50.120	21.01	29.55	-0.10	7.61
50.149	21.01	29.55	-0.10	7.61
50.179	21.01	29.55	-0.04	7.67
50.209	21.01	29.55	-0.04	7.67
50.239	21.01	29.55	-0.04	7.67
50.269	21.01	29.55	-0.04	7.67
50.298	21.01	29.55	-0.04	7.67
50.328	21.03	29.57	-0.04	7.67
50.358	21.03	29.57	-0.12	7.59
50.388	21.03	29.57	-0.12	7.59
50.417	21.02	29.57	-0.12	7.59
50.447	21.02	29.57	-0.00	7.71
50.477	21.02	29.57	-0.00	7.71
50.507	21.03	29.57	-0.00	7.71
50.536	21.03	29.57	-0.09	7.62
50.566	21.03	29.57	-0.09	7.62
50.596	21.02	29.57	-0.09	7.62
50.626	21.02	29.57	-0.04	7.67
50.655	21.02	29.57	-0.04	7.67
50.685	21.02	29.56	-0.04	7.67
50.715	21.02	29.56	-0.04	7.67
50.745	21.02	29.56	-0.04	7.67
50.774	21.04	29.58	-0.04	7.67
50.804	21.04	29.58	-0.12	7.59
50.834	21.04	29.58	-0.12	7.59
50.864	21.04	29.58	-0.12	7.59
50.894	21.04	29.58	-0.00	7.71
50.923	21.04	29.58	-0.00	7.71
50.953	21.02	29.56	-0.00	7.71
50.983	21.02	29.56	-0.10	7.61
51.013	21.02	29.56	-0.10	7.61
51.042	21.00	29.54	-0.10	7.61
51.072	21.00	29.54	-0.04	7.67
51.102	21.00	29.54	-0.04	7.67
51.132	21.03	29.57	-0.04	7.67
51.161	21.03	29.57	-0.03	7.68
51.191	21.03	29.57	-0.03	7.68
51.221	21.03	29.57	-0.03	7.68
51.251	21.03	29.57	-0.11	7.59
51.280	21.03	29.57	-0.11	7.59
51.310	21.04	29.58	-0.11	7.59
51.340	21.04	29.58	-0.00	7.71
51.370	21.04	29.58	-0.00	7.71
51.399	21.02	29.56	-0.00	7.71
51.429	21.02	29.56	-0.10	7.61
51.459	21.02	29.56	-0.10	7.61
51.489	21.05	29.59	-0.10	7.61
51.519	21.05	29.59	-0.04	7.67
51.548	21.05	29.59	-0.04	7.67
51.578	21.04	29.58	-0.04	7.67
51.608	21.04	29.58	-0.03	7.68
51.638	21.04	29.58	-0.03	7.68
51.667	21.08	29.62	-0.03	7.68
51.697	21.08	29.62	-0.12	7.59
51.727	21.08	29.62	-0.12	7.59
51.757	21.06	29.60	-0.12	7.59
51.786	21.06	29.60	-0.01	7.70
51.816	21.06	29.60	-0.01	7.70
51.846	21.06	29.60	-0.01	7.70
51.876	21.06	29.60	-0.10	7.61
51.905	21.06	29.60	-0.10	7.61
51.935	21.04	29.58	-0.10	7.61
51.965	21.04	29.58	-0.04	7.67
51.995	21.04	29.58	-0.04	7.67
52.024	21.04	29.58	-0.04	7.67
52.054	21.04	29.58	-0.02	7.68
52.084	21.04	29.58	-0.02	7.68
52.114	21.07	29.61	-0.02	7.68
52.144	21.07	29.61	-0.11	7.60
52.173	21.07	29.61	-0.11	7.60
52.203	21.04	29.58	-0.11	7.60
52.233	21.04	29.58	-0.01	7.70
52.263	21.04	29.58	-0.01	7.70
52.292	21.05	29.59	-0.01	7.70
52.322	21.05	29.59	-0.10	7.61
52.352	21.05	29.59	-0.10	7.61
52.382	21.05	29.59	-0.10	7.61
52.411	21.05	29.59	-0.05	7.66
52.441	21.05	29.59	-0.05	7.66
52.471	21.05	29.59	-0.05	7.66
52.501	21.05	29.59	-0.02	7.68
52.530	21.05	29.59	-0.02	7.68
52.560	21.07	29.61	-0.02	7.68
52.590	21.07	29.61	-0.12	7.59
52.620	21.07	29.61	-0.12	7.59
52.649	21.07	29.61	-0.12	7.59
52.679	21.07	29.61	-0.01	7.70
52.709	21.07	29.61	-0.01	7.70
52.739	21.06	29.60	-0.01	7.70
52.768	21.06	29.60	-0.10	7.61
52.798	21.06	29.60	-0.10	7.61
52.828	21.07	29.61	-0.10	7.61
52.858	21.07	29.61	-0.05	7.66
52.887	21.07	29.61	-0.05	7.66
52.917	21.08	29.62	-0.05	7.66
52.947	21.08	29.62	-0.02	7.69
52.977	21.08	29.62	-0.02	7.69
53.007	21.09	29.63	-0.02	7.69
53.036	21.09	29.63	-0.12	7.59
53.066	21.09	29.63	-0.12	7.59
53.096	21.10	29.64	-0.12	7.59
53.126	21.10	29.64	-0.01	7.70
53.155	21.10	29.64	-0.01	7.70
53.185	21.06	29.60	-0.01	7.70
53.215	21.06	29.60	-0.10	7.61
53.245	21.06	29.60	-0.10	7.61
53.274	21.07	29.61	-0.10	7.61
53.304	21.07	29.61	-0.05	7.66
53.334	21.07	29.61	-0.05	7.66
53.364	21.07	29.61	-0.05	7.66
53.393	21.07	29.61	-0.02	7.69
53.423	21.07	29.61	-0.02	7.69
53.453	21.07	29.61	-0.02	7.69
53.483	21.07	29.61	-0.12	7.59
53.512	21.07	29.61	-0.12	7.59
53.542	21.05	29.59	-0.12	7.59
53.572	21.05	29.59	-0.01	7.70
53.602	21.05	29.59	-0.01	7.70
53.632	21.04	29.58	-0.01	7.70
53.661	21.04	29.58	-0.09	7.62
53.691	21.04	29.58	-0.09	7.62
53.721	21.05	29.59	-0.09	7.62
53.751	21.05	29.59	-0.05	7.66
53.780	21.05	29.59	-0.05	7.66
53.810	21.03	29.57	-0.05	7.66
53.840	21.03	29.57	-0.02	7.69
53.870	21.03	29.57	-0.02	7.69
53.899	21.07	29.62	-0.02	7.69
53.929	21.07	29.62	-0.11	7.59
53.959	21.07	29.62	-0.11	7.59
53.989	21.04	29.58	-0.11	7.59
54.018	21.04	29.58	-0.01	7.70
54.048	21.04	29.58	-0.01	7.70
54.078	21.04	29.58	-0.01	7.70
54.108	21.04	29.58	-0.10	7.61
54.137	21.04	29.58	-0.10	7.61
54.167	21.06	29.60	-0.10	7.61
54.197	21.06	29.60	-0.05	7.65
54.227	21.06	29.60	-0.05	7.65
54.257	21.03	29.57	-0.05	7.65
54.286	21.03	29.57	-0.02	7.69
54.316	21.03	29.57	-0.02	7.69
54.346	21.02	29.56	-0.02	7.69
54.376	21.02	29.56	-0.12	7.59
54.405	21.02	29.56	-0.12	7.59
54.435	21.03	29.57	-0.12	7.59
54.465	21.03	29.57	-0.01	7.70
54.495	21.03	29.57	-0.01	7.70
54.524	21.02	29.56	-0.01	7.70
54.554	21.02	29.56	-0.10	7.61
54.584	21.02	29.56	-0.10	7.61
54.614	21.02	29.56	-0.10	7.61
54.643	21.02	29.56	-0.06	7.65
54.673	21.02	29.56	-0.06	7.65
54.703	21.00	29.54	-0.06	7.65
54.733	21.00	29.54	-0.01	7.69
54.762	21.00	29.54	-0.01	7.69
54.792	21.03	29.57	-0.01	7.69
54.822	21.03	29.57	-0.11	7.59
54.852	21.03	29.57	-0.11	7.59
54.881	21.02	29.56	-0.11	7.59
54.911	21.02	29.56	-0.01	7.70
54.941	21.02	29.56	-0.01	7.70
54.971	21.02	29.56	-0.01	7.70
55.001	21.02	29.56	-0.10	7.61
55.030	21.02	29.56	-0.10	7.61
55.060	21.03	29.57	-0.10	7.61
55.090	21.03	29.57	-0.06	7.65
55.120	21.03	29.57	-0.06	7.65
55.149	21.04	29.58	-0.06	7.65
55.179	21.04	29.58	-0.02	7.69
55.209	21.04	29.58	-0.02	7.69
55.239	21.04	29.58	-0.02	7.69
55.268	21.04	29.58	-0.11	7.59
55.298	21.04	29.58	-0.11	7.59
55.328	21.04	29.58	-0.11	7.59
55.358	21.04	29.58	-0.01	7.70
55.387	21.04	29.58	-0.01	7.70
55.417	21.02	29.57	-0.01	7.70
55.447	21.02	29.57	-0.09	7.62
55.477	21.02	29.57	-0.09	7.62
55.506	21.00	29.54	-0.09	7.62
55.536	21.00	29.54	-0.06	7.65
55.566	21.00	29.54	-0.06	7.65
55.596	20.99	29.53	-0.06	7.65
55.625	20.99	29.53	-0.01	7.70
55.655	20.99	29.53	-0.01	7.70
55.685	21.04	29.58	-0.01	7.70
55.715	21.04	29.58	-0.12	7.59
55.745	21.04	29.58	-0.12	7.59
55.774	21.06	29.60	-0.12	7.59
55.804	21.06	29.60	-0.02	7.69
55.834	21.06	29.60	-0.02	7.69
55.864	21.07	29.62	-0.02	7.69
55.893	21.07	29.62	-0.10	7.61
55.923	21.07	29.62	-0.10	7.61
55.953	21.06	29.60	-0.10	7.61
55.983	21.06	29.60	-0.06	7.65
56.012	21.06	29.60	-0.06	7.65
56.042	21.06	29.60	-0.06	7.65
56.072	21.06	29.60	-0.01	7.70
56.102	21.06	29.60	-0.01	7.70
56.131	21.06	29.60	-0.01	7.70
56.161	21.06	29.60	-0.12	7.59
56.191	21.06	29.60	-0.12	7.59
56.221	21.06	29.60	-0.12	7.59
56.250	21.06	29.60	-0.01	7.70
56.280	21.06	29.60	-0.01	7.70
56.310	21.07	29.61	-0.01	7.70
56.340	21.07	29.61	-0.09	7.62
56.369	21.07	29.61	-0.09	7.62
56.399	21.04	29.58	-0.09	7.62
56.429	21.04	29.58	-0.06	7.65
56.459	21.04	29.58	-0.06	7.65
56.488	21.02	29.56	-0.06	7.65
56.518	21.02	29.56	-0.01	7.70
56.548	21.02	29.56	-0.01	7.70
56.578	21.02	29.57	-0.01	7.70
56.608	21.02	29.57	-0.11	7.60
56.637	21.02	29.57	-0.11	7.60
56.667	21.05	29.59	-0.11	7.60
56.697	21.05	29.59	-0.01	7.70
56.727	21.05	29.59	-0.01	7.70
56.756	21.05	29.59	-0.01	7.70
56.786	21.05	29.59	-0.09	7.62
56.816	21.05	29.59	-0.09	7.62
56.846	21.05	29.59	-0.09	7.62
56.875	21.05	29.59	-0.06	7.64
56.905	21.05	29.59	-0.06	7.64
56.935	21.05	29.59	-0.06	7.64
56.965	21.05	29.59	-0.01	7.70
56.994	21.05	29.59	-0.01	7.70
57.024	21.03	29.57	-0.01	7.70
57.054	21.03	29.57	-0.11	7.60
57.084	21.03	29.57	-0.11	7.60
57.113	21.06	29.60	-0.11	7.60
57.143	21.06	29.60	-0.01	7.70
57.173	21.06	29.60	-0.01	7.70
57.203	21.03	29.57	-0.01	7.70
57.233	21.03	29.57	-0.09	7.62
57.262	21.03	29.57	-0.09	7.62
57.292	21.02	29.56	-0.09	7.62
57.322	21.02	29.56	-0.06	7.65
57.352	21.02	29.56	-0.06	7.65
57.381	21.00	29.54	-0.06	7.65
57.411	21.00	29.54	-0.01	7.70
57.441	21.00	29.54	-0.01	7.70
57.471	21.02	29.56	-0.01	7.70
57.500	21.02	29.56	-0.11	7.59
57.530	21.02	29.56	-0.11	7.59
57.560	21.03	29.57	-0.11	7.59
57.590	21.03	29.57	-0.01	7.70
57.619	21.03	29.57	-0.01	7.70
57.649	21.01	29.55	-0.01	7.70
57.679	21.01	29.55	-0.09	7.62
57.709	21.01	29.55	-0.09	7.62
57.738	21.01	29.55	-0.09	7.62
57.768	21.01	29.55	-0.07	7.64
57.798	21.01	29.55	-0.07	7.64
57.828	21.02	29.56	-0.07	7.64
57.857	21.02	29.56	-0.01	7.70
57.887	21.02	29.56	-0.01	7.70
57.917	21.02	29.56	-0.01	7.70
57.947	21.02	29.56	-0.11	7.60
57.977	21.02	29.56	-0.11	7.60
58.006	21.01	29.55	-0.11	7.60
58.036	21.01	29.55	-0.01	7.69
58.066	21.01	29.55	-0.01	7.69
58.096	21.00	29.54	-0.01	7.69
58.125	21.00	29.54	-0.09	7.62
58.155	21.00	29.54	-0.09	7.62
58.185	20.99	29.53	-0.09	7.62
58.215	20.99	29.53	-0.07	7.64
58.244	20.99	29.53	-0.07	7.64
58.274	21.01	29.55	-0.07	7.64
58.304	21.01	29.55	-0.01	7.70
58.334	21.01	29.55	-0.01	7.70
58.363	21.03	29.57	-0.01	7.70
58.393	21.03	29.57	-0.11	7.59
58.423	21.03	29.57	-0.11	7.59
58.453	21.06	29.60	-0.11	7.59
58.482	21.06	29.60	-0.01	7.69
58.512	21.06	29.60	-0.01	7.69
58.542	21.05	29.59	-0.01	7.69
58.572	21.05	29.59	-0.09	7.62
58.601	21.05	29.59	-0.09	7.62
58.631	21.05	29.59	-0.09	7.62
58.661	21.05	29.59	-0.07	7.64
58.691	21.05	29.59	-0.07	7.64
58.720	21.05	29.59	-0.07	7.64
58.750	21.05	29.59	-0.01	7.70
58.780	21.05	29.59	-0.01	7.70
58.810	21.05	29.59	-0.01	7.70
58.839	21.05	29.59	-0.12	7.59
58.869	21.05	29.59	-0.12	7.59
58.899	21.05	29.59	-0.12	7.59
58.929	21.05	29.59	-0.02	7.69
58.958	21.05	29.59	-0.02	7.69
58.988	21.04	29.58	-0.02	7.69
59.018	21.04	29.58	-0.09	7.62
59.048	21.04	29.58	-0.09	7.62
59.078	21.06	29.60	-0.09	7.62
59.107	21.06	29.60	-0.06	7.64
59.137	21.06	29.60	-0.06	7.64
59.167	21.05	29.59	-0.06	7.64
59.197	21.05	29.59	-0.01	7.70
59.226	21.05	29.59	-0.01	7.70
59.256	21.03	29.57	-0.01	7.70
59.286	21.03	29.57	-0.11	7.60
59.316	21.03	29.57	-0.11	7.60
59.345	21.04	29.58	-0.11	7.60
59.375	21.04	29.58	-0.02	7.69
59.405	21.04	29.58	-0.02	7.69
59.435	21.05	29.59	-0.02	7.69
59.464	21.05	29.59	-0.09	7.62
59.494	21.05	29.59	-0.09	7.62
59.524	21.04	29.58	-0.09	7.62
59.554	21.04	29.58	-0.07	7.64
59.583	21.04	29.58	-0.07	7.64
59.613	21.04	29.58	-0.07	7.64
59.643	21.04	29.58	-0.00	7.71
59.673	21.04	29.58	-0.00	7.71
59.703	21.04	29.58	-0.00	7.71
59.732	21.04	29.58	-0.11	7.60
59.762	21.04	29.58	-0.11	7.60
59.792	21.04	29.58	-0.11	7.60
59.822	21.04	29.58	-0.02	7.69
59.851	21.04	29.58	-0.02	7.69
59.881	21.02	29.57	-0.02	7.69
59.911	21.02	29.57	-0.08	7.63
59.941	21.02	29.57	-0.08	7.63
59.970	21.01	29.55	-0.08	7.63
60.000	21.01	29.55	-0.07	7.64
60.030	21.01	29.55	-0.07	7.64
60.060	21.01	29.55	-0.07	7.64
60.089	21.01	29.55	-0.00	7.70
60.119	21.01	29.55	-0.00	7.70
60.149	21.01	29.55	-0.00	7.70
60.179	21.01	29.55	-0.11	7.60
60.208	21.01	29.55	-0.11	7.60
60.238	21.01	29.55	-0.11	7.60
60.268	21.01	29.55	-0.02	7.69
60.298	21.01	29.55	-0.02	7.69
60.327	21.00	29.54	-0.02	7.69
60.357	21.00	29.54	-0.09	7.62
60.387	21.00	29.54	-0.09	7.62
60.417	21.00	29.54	-0.09	7.62
60.447	21.00	29.54	-0.07	7.63
60.476	21.00	29.54	-0.07	7.63
60.506	20.99	29.53	-0.07	7.63
60.536	20.99	29.53	-0.01	7.70
60.566	20.99	29.53	-0.01	7.70
60.595	20.99	29.53	-0.01	7.70
60.625	20.99	29.53	-0.11	7.60
60.655	20.99	29.53	-0.11	7.60
60.685	21.04	29.58	-0.11	7.60
60.714	21.04	29.58	-0.02	7.69
60.744	21.04	29.58	-0.02	7.69
60.774	21.07	29.61	-0.02	7.69
60.804	21.07	29.61	-0.09	7.62
60.833	21.07	29.61	-0.09	7.62
60.863	21.06	29.60	-0.09	7.62
60.893	21.06	29.60	-0.08	7.63
60.923	21.06	29.60	-0.08	7.63
60.952	21.05	29.59	-0.08	7.63
60.982	21.05	29.59	-0.01	7.70
61.012	21.05	29.59	-0.01	7.70
61.042	21.04	29.58	-0.01	7.70
61.072	21.04	29.58	-0.12	7.59
61.101	21.04	29.58	-0.12	7.59
61.131	21.07	29.61	-0.12	7.59
61.161	21.07	29.61	-0.02	7.69
61.191	21.07	29.61	-0.02	7.69
61.220	21.06	29.60	-0.02	7.69
61.250	21.06	29.60	-0.08	7.63
61.280	21.06	29.60	-0.08	7.63
61.310	21.06	29.60	-0.08	7.63
61.339	21.06	29.60	-0.08	7.63
61.369	21.06	29.60	-0.08	7.63
61.399	21.05	29.59	-0.08	7.63
61.429	21.05	29.59	-0.01	7.70
61.458	21.05	29.59	-0.01	7.70
61.488	21.04	29.58	-0.01	7.70
61.518	21.04	29.58	-0.12	7.59
61.548	21.04	29.58	-0.12	7.59
61.577	21.07	29.61	-0.12	7.59
61.607	21.07	29.61	-0.02	7.69
61.637	21.07	29.61	-0.02	7.69
61.667	21.06	29.60	-0.02	7.69
61.696	21.06	29.60	-0.09	7.62
61.726	21.06	29.60	-0.09	7.62
61.756	21.05	29.59	-0.09	7.62
61.786	21.05	29.59	-0.09	7.62
61.816	21.05	29.59	-0.09	7.62
61.845	21.05	29.59	-0.09	7.62
61.875	21.05	29.59	-0.00	7.71
61.905	21.05	29.59	-0.00	7.71
61.935	21.04	29.58	-0.00	7.71
61.964	21.04	29.58	-0.12	7.59
61.994	21.04	29.58	-0.12	7.59
62.024	21.04	29.58	-0.12	7.59
62.054	21.04	29.58	-0.02	7.69
62.083	21.04	29.58	-0.02	7.69
62.113	21.05	29.59	-0.02	7.69
62.143	21.05	29.59	-0.08	7.63
62.173	21.05	29.59	-0.08	7.63
62.202	21.04	29.58	-0.08	7.63
62.232	21.04	29.58	-0.09	7.62
62.262	21.04	29.58	-0.09	7.62
62.292	21.04	29.58	-0.09	7.62
62.322	21.04	29.58	-0.01	7.70
62.351	21.04	29.58	-0.01	7.70
62.381	21.04	29.58	-0.01	7.70
62.411	21.04	29.58	-0.11	7.59
62.441	21.04	29.58	-0.11	7.59
62.470	21.04	29.58	-0.11	7.59
62.500	21.04	29.58	-0.02	7.69
62.530	21.04	29.58	-0.02	7.69
62.560	21.05	29.59	-0.02	7.69
62.589	21.05	29.59	-0.08	7.63
62.619	21.05	29.59	-0.08	7.63
62.649	21.03	29.57	-0.08	7.63
62.679	21.03	29.57	-0.09	7.62
62.708	21.03	29.57	-0.09	7.62
62.738	21.04	29.58	-0.09	7.62
62.768	21.04	29.58	-0.01	7.70
62.798	21.04	29.58	-0.01	7.70
62.827	21.01	29.55	-0.01	7.70
62.857	21.01	29.55	-0.11	7.59
62.887	21.01	29.55	-0.11	7.59
62.917	21.03	29.57	-0.11	7.59
62.947	21.03	29.57	-0.02	7.69
62.976	21.03	29.57	-0.02	7.69
63.006	21.05	29.59	-0.02	7.69
63.036	21.05	29.59	-0.08	7.63
63.066	21.05	29.59	-0.08	7.63
63.095	21.03	29.57	-0.08	7.63
63.125	21.03	29.57	-0.09	7.62
63.155	21.03	29.57	-0.09	7.62
63.185	21.04	29.58	-0.09	7.62
63.214	21.04	29.58	-0.01	7.70
63.244	21.04	29.58	-0.01	7.70
63.274	21.04	29.58	-0.01	7.70
63.304	21.04	29.58	-0.11	7.60
63.333	21.04	29.58	-0.11	7.60
63.363	21.02	29.56	-0.11	7.60
63.393	21.02	29.56	-0.02	7.68
63.423	21.02	29.56	-0.02	7.68
63.452	21.04	29.58	-0.02	7.68
63.482	21.04	29.58	-0.07	7.63
63.512	21.04	29.58	-0.07	7.63
63.542	21.02	29.56	-0.07	7.63
63.571	21.02	29.56	-0.10	7.61
63.601	21.02	29.56	-0.10	7.61
63.631	21.04	29.58	-0.10	7.61
63.661	21.04	29.58	-0.01	7.70
63.691	21.04	29.58	-0.01	7.70
63.720	21.02	29.56	-0.01	7.70
63.750	21.02	29.56	-0.12	7.59
63.780	21.02	29.56	-0.12	7.59
63.810	21.02	29.56	-0.12	7.59
63.839	21.02	29.56	-0.02	7.68
63.869	21.02	29.56	-0.02	7.68
63.899	21.01	29.55	-0.02	7.68
63.929	21.01	29.55	-0.07	7.64
63.958	21.01	29.55	-0.07	7.64
63.988	21.01	29.55	-0.07	7.64
64.018	21.01	29.55	-0.10	7.61
64.048	21.01	29.55	-0.10	7.61
64.077	21.00	29.54	-0.10	7.61
64.107	21.00	29.54	-0.01	7.70
64.137	21.00	29.54	-0.01	7.70
64.167	21.01	29.55	-0.01	7.70
64.197	21.01	29.55	-0.11	7.59
64.226	21.01	29.55	-0.11	7.59
64.256	21.00	29.54	-0.11	7.59
64.286	21.00	29.54	-0.03	7.68
64.316	21.00	29.54	-0.03	7.68
64.345	21.04	29.58	-0.03	7.68
64.375	21.04	29.58	-0.07	7.64
64.405	21.04	29.58	-0.07	7.64
64.435	21.05	29.59	-0.07	7.64
64.464	21.05	29.59	-0.10	7.61
64.494	21.05	29.59	-0.10	7.61
64.524	21.03	29.57	-0.10	7.61
64.554	21.03	29.57	-0.00	7.70
64.583	21.03	29.57	-0.00	7.70
64.613	21.01	29.55	-0.00	7.70
64.643	21.01	29.55	-0.11	7.60
64.673	21.01	29.55	-0.11	7.60
64.702	21.02	29.57	-0.11	7.60
64.732	21.02	29.57	-0.02	7.68
64.762	21.02	29.57	-0.02	7.68
64.792	21.06	29.60	-0.02	7.68
64.821	21.06	29.60	-0.07	7.64
64.851	21.06	29.60	-0.07	7.64
64.881	21.04	29.58	-0.07	7.64
64.911	21.04	29.58	-0.10	7.61
64.941	21.04	29.58	-0.10	7.61
64.970	21.02	29.56	-0.10	7.61
65.000	21.02	29.56	-0.00	7.70
65.030	21.02	29.56	-0.00	7.70
65.060	21.03	29.57	-0.00	7.70
65.089	21.03	29.57	-0.11	7.60
65.119	21.03	29.57	-0.11	7.60
65.149	21.04	29.58	-0.11	7.60
65.179	21.04	29.58	-0.02	7.69
65.208	21.04	29.58	-0.02	7.69
65.238	21.06	29.60	-0.02	7.69
65.268	21.06	29.60	-0.07	7.64
65.298	21.06	29.60	-0.07	7.64
65.327	21.06	29.60	-0.07	7.64
65.357	21.06	29.60	-0.10	7.60
65.387	21.06	29.60	-0.10	7.60
65.417	21.04	29.58	-0.10	7.60
65.446	21.04	29.58	-0.01	7.70
65.476	21.04	29.58	-0.01	7.70
65.506	21.02	29.56	-0.01	7.70
65.536	21.02	29.56	-0.11	7.60
65.565	21.02	29.56	-0.11	7.60
65.595	21.03	29.57	-0.11	7.60
65.625	21.03	29.57	-0.02	7.68
65.655	21.03	29.57	-0.02	7.68
65.685	21.04	29.58	-0.02	7.68
65.714	21.04	29.58	-0.07	7.64
65.744	21.04	29.58	-0.07	7.64
65.774	21.03	29.57	-0.07	7.64
65.804	21.03	29.57	-0.10	7.60
65.833	21.03	29.57	-0.10	7.60
65.863	21.03	29.57	-0.10	7.60
65.893	21.03	29.57	-0.00	7.71
65.923	21.03	29.57	-0.00	7.71
65.952	21.02	29.56	-0.00	7.71
65.982	21.02	29.56	-0.11	7.60
66.012	21.02	29.56	-0.11	7.60
66.042	21.02	29.56	-0.11	7.60
66.071	21.02	29.56	-0.02	7.68
66.101	21.02	29.56	-0.02	7.68
66.131	21.03	29.57	-0.02	7.68
66.161	21.03	29.57	-0.06	7.64
66.191	21.03	29.57	-0.06	7.64
66.220	21.07	29.61	-0.06	7.64
66.250	21.07	29.61	-0.11	7.60
66.280	21.07	29.61	-0.11	7.60
66.310	21.02	29.57	-0.11	7.60
66.339	21.02	29.57	0.00	7.71
66.369	21.02	29.57	0.00	7.71
66.399	21.02	29.56	0.00	7.71
66.428	21.02	29.56	-0.11	7.60
66.458	21.02	29.56	-0.11	7.60
66.488	21.02	29.56	-0.11	7.60
66.518	21.02	29.56	-0.02	7.68
66.547	21.02	29.56	-0.02	7.68
66.577	21.04	29.58	-0.02	7.68
66.607	21.04	29.58	-0.06	7.65
66.637	21.04	29.58	-0.06	7.65
66.667	21.03	29.57	-0.06	7.65
66.696	21.03	29.57	-0.11	7.60
66.726	21.03	29.57	-0.11	7.60
66.756	21.03	29.57	-0.11	7.60
66.786	21.03	29.57	-0.01	7.70
66.815	21.03	29.57	-0.01	7.70
66.845	21.04	29.58	-0.01	7.70
66.875	21.04	29.58	-0.11	7.60
66.905	21.04	29.58	-0.11	7.60
66.934	21.04	29.58	-0.11	7.60
66.964	21.04	29.58	-0.02	7.69
66.994	21.04	29.58	-0.02	7.69
67.024	21.03	29.57	-0.02	7.69
67.053	21.03	29.57	-0.06	7.65
67.083	21.03	29.57	-0.06	7.65
67.113	21.04	29.58	-0.06	7.65
67.143	21.04	29.58	-0.11	7.60
67.172	21.04	29.58	-0.11	7.60
67.202	21.03	29.57	-0.11	7.60
67.232	21.03	29.57	-0.00	7.70
67.262	21.03	29.57	-0.00	7.70
67.291	21.01	29.55	-0.00	7.70
67.321	21.01	29.55	-0.11	7.60
67.351	21.01	29.55	-0.11	7.60
67.381	21.01	29.55	-0.11	7.60
67.410	21.01	29.55	-0.03	7.68
67.440	21.01	29.55	-0.03	7.68
67.470	21.06	29.60	-0.03	7.68
67.500	21.06	29.60	-0.06	7.65
67.530	21.06	29.60	-0.06	7.65
67.559	21.05	29.59	-0.06	7.65
67.589	21.05	29.59	-0.11	7.60
67.619	21.05	29.59	-0.11	7.60
67.649	21.03	29.57	-0.11	7.60
67.678	21.03	29.57	-0.00	7.70
67.708	21.03	29.57	-0.00	7.70
67.738	21.04	29.58	-0.00	7.70
67.768	21.04	29.58	-0.11	7.60
67.797	21.04	29.58	-0.11	7.60
67.827	21.02	29.56	-0.11	7.60
67.857	21.02	29.56	-0.03	7.68
67.887	21.02	29.56	-0.03	7.68
67.916	21.04	29.58	-0.03	7.68
67.946	21.04	29.58	-0.06	7.65
67.976	21.04	29.58	-0.06	7.65
68.006	21.04	29.58	-0.06	7.65
68.035	21.04	29.58	-0.11	7.60
68.065	21.04	29.58	-0.11	7.60
68.095	21.02	29.56	-0.11	7.60
68.125	21.02	29.56	-0.01	7.70
68.154	21.02	29.56	-0.01	7.70
68.184	21.04	29.58	-0.01	7.70
68.214	21.04	29.58	-0.10	7.61
68.244	21.04	29.58	-0.10	7.61
68.274	21.02	29.56	-0.10	7.61
68.303	21.02	29.56	-0.03	7.68
68.333	21.02	29.56	-0.03	7.68
68.363	21.05	29.59	-0.03	7.68
68.393	21.05	29.59	-0.05	7.66
68.422	21.05	29.59	-0.05	7.66
68.452	21.06	29.60	-0.05	7.66
68.482	21.06	29.60	-0.11	7.60
68.512	21.06	29.60	-0.11	7.60
68.541	21.05	29.59	-0.11	7.60
68.571	21.05	29.59	-0.00	7.70
68.601	21.05	29.59	-0.00	7.70
68.631	21.05	29.59	-0.00	7.70
68.660	21.05	29.59	-0.10	7.61
68.690	21.05	29.59	-0.10	7.61
68.720	21.04	29.58	-0.10	7.61
68.750	21.04	29.58	-0.03	7.68
68.779	21.04	29.58	-0.03	7.68
68.809	21.05	29.59	-0.03	7.68
68.839	21.05	29.59	-0.05	7.66
68.869	21.05	29.59	-0.05	7.66
68.898	21.08	29.62	-0.05	7.66
68.928	21.08	29.62	-0.11	7.60
68.958	21.08	29.62	-0.11	7.60
68.988	21.07	29.61	-0.11	7.60
69.018	21.07	29.61	-0.01	7.70
69.047	21.07	29.61	-0.01	7.70
69.077	21.06	29.60	-0.01	7.70
69.107	21.06	29.60	-0.11	7.60
69.137	21.06	29.60	-0.11	7.60
69.166	21.04	29.58	-0.11	7.60
69.196	21.04	29.58	-0.03	7.68
69.226	21.04	29.58	-0.03	7.68
69.256	21.05	29.59	-0.03	7.68
69.285	21.05	29.59	-0.05	7.66
69.315	21.05	29.59	-0.05	7.66
69.345	21.04	29.58	-0.05	7.66
69.375	21.04	29.58	-0.11	7.59
69.404	21.04	29.58	-0.11	7.59
69.434	21.03	29.57	-0.11	7.59
69.464	21.03	29.57	-0.01	7.70
69.494	21.03	29.57	-0.01	7.70
69.523	21.01	29.55	-0.01	7.70
69.553	21.01	29.55	-0.10	7.60
69.583	21.01	29.55	-0.10	7.60
69.613	21.01	29.55	-0.10	7.60
69.642	21.01	29.55	-0.03	7.68
69.672	21.01	29.55	-0.03	7.68
69.702	21.00	29.54	-0.03	7.68
69.732	21.00	29.54	-0.05	7.66
69.762	21.00	29.54	-0.05	7.66
69.791	21.04	29.58	-0.05	7.66
69.821	21.04	29.58	-0.11	7.59
69.851	21.04	29.58	-0.11	7.59
69.881	21.06	29.60	-0.11	7.59
69.910	21.06	29.60	-0.01	7.70
69.940	21.06	29.60	-0.01	7.70
69.970	21.04	29.58	-0.01	7.70
70.000	21.04	29.58	-0.10	7.60
70.029	21.04	29.58	-0.10	7.60
70.059	21.05	29.59	-0.10	7.60
70.089	21.05	29.59	-0.03	7.68
70.119	21.05	29.59	-0.03	7.68
70.148	21.03	29.57	-0.03	7.68
70.178	21.03	29.57	-0.04	7.67
70.208	21.03	29.57	-0.04	7.67
70.238	21.05	29.59	-0.04	7.67
70.267	21.05	29.59	-0.12	7.59
70.297	21.05	29.59	-0.12	7.59
70.327	21.01	29.55	-0.12	7.59
70.357	21.01	29.55	-0.01	7.70
70.386	21.01	29.55	-0.01	7.70
70.416	21.01	29.55	-0.01	7.70
70.446	21.01	29.55	-0.10	7.61
70.476	21.01	29.55	-0.10	7.61
70.505	21.02	29.56	-0.10	7.61
70.535	21.02	29.56	-0.03	7.68
70.565	21.02	29.56	-0.03	7.68
70.595	20.98	29.52	-0.03	7.68
70.625	20.98	29.52	-0.04	7.67
70.654	20.98	29.52	-0.04	7.67
70.684	21.02	29.56	-0.04	7.67
70.714	21.02	29.56	-0.11	7.59
70.744	21.02	29.56	-0.11	7.59
70.773	21.02	29.56	-0.11	7.59
70.803	21.02	29.56	-0.00	7.71
70.833	21.02	29.56	-0.00	7.71
70.863	21.04	29.58	-0.00	7.71
70.892	21.04	29.58	-0.10	7.61
70.922	21.04	29.58	-0.10	7.61
70.952	21.03	29.57	-0.10	7.61
70.982	21.03	29.57	-0.03	7.68
71.011	21.03	29.57	-0.03	7.68
71.041	21.02	29.56	-0.03	7.68
71.071	21.02	29.56	-0.04	7.67
71.101	21.02	29.56	-0.04	7.67
71.131	21.05	29.59	-0.04	7.67
71.160	21.05	29.59	-0.11	7.59
71.190	21.05	29.59	-0.11	7.59
71.220	21.03	29.57	-0.11	7.59
71.250	21.03	29.57	0.00	7.71
71.279	21.03	29.57	0.00	7.71
71.309	21.01	29.55	0.00	7.71
71.339	21.01	29.55	-0.10	7.61
71.368	21.01	29.55	-0.10	7.61
71.398	21.05	29.59	-0.10	7.61
71.428	21.05	29.59	-0.03	7.68
71.458	21.05	29.59	-0.03	7.68
71.488	21.03	29.57	-0.03	7.68
71.517	21.03	29.57	-0.04	7.67
71.547	21.03	29.57	-0.04	7.67
71.577	21.05	29.59	-0.04	7.67
71.607	21.05	29.59	-0.11	7.60
71.636	21.05	29.59	-0.11	7.60
71.666	21.05	29.59	-0.11	7.60
71.696	21.05	29.59	-0.00	7.71
71.726	21.05	29.59	-0.00	7.71
71.755	21.01	29.55	-0.00	7.71
71.785	21.01	29.55	-0.10	7.61
71.815	21.01	29.55	-0.10	7.61
71.845	20.97	29.51	-0.10	7.61
71.874	20.97	29.51	-0.04	7.67
71.904	20.97	29.51	-0.04	7.67
71.934	20.99	29.53	-0.04	7.67
71.964	20.99	29.53	-0.03	7.68
71.993	20.99	29.53	-0.03	7.68
72.023	21.01	29.55	-0.03	7.68
72.053	21.01	29.55	-0.11	7.59
72.083	21.01	29.55	-0.11	7.59
72.113	21.05	29.59	-0.11	7.59
72.142	21.05	29.59	-0.00	7.70
72.172	21.05	29.59	-0.00	7.70
72.202	21.03	29.57	-0.00	7.70
72.232	21.03	29.57	-0.10	7.61
72.261	21.03	29.57	-0.10	7.61
72.291	21.03	29.57	-0.10	7.61
72.321	21.03	29.57	-0.04	7.67
72.351	21.03	29.57	-0.04	7.67
72.380	21.02	29.56	-0.04	7.67
72.410	21.02	29.56	-0.03	7.68
72.440	21.02	29.56	-0.03	7.68
72.470	21.03	29.57	-0.03	7.68
72.499	21.03	29.57	-0.11	7.59
72.529	21.03	29.57	-0.11	7.59
72.559	21.04	29.58	-0.11	7.59
72.589	21.04	29.58	-0.00	7.71
72.618	21.04	29.58	-0.00	7.71
72.648	21.03	29.57	-0.00	7.71
72.678	21.03	29.57	-0.10	7.61
72.708	21.03	29.57	-0.10	7.61
72.737	21.04	29.58	-0.10	7.61
72.767	21.04	29.58	-0.04	7.67
72.797	21.04	29.58	-0.04	7.67
72.827	21.03	29.57	-0.04	7.67
72.856	21.03	29.57	-0.03	7.68
72.886	21.03	29.57	-0.03	7.68
72.916	21.03	29.57	-0.03	7.68
72.946	21.03	29.57	-0.12	7.59
72.976	21.03	29.57	-0.12	7.59
73.005	21.01	29.55	-0.12	7.59
73.035	21.01	29.55	-0.00	7.71
73.065	21.01	29.55	-0.00	7.71
73.095	21.01	29.55	-0.00	7.71
73.124	21.01	29.55	-0.09	7.62
73.154	21.01	29.55	-0.09	7.62
73.184	21.00	29.54	-0.09	7.62
73.214	21.00	29.54	-0.04	7.67
73.243	21.00	29.54	-0.04	7.67
73.273	20.99	29.53	-0.04	7.67
73.303	20.99	29.53	-0.03	7.68
73.333	20.99	29.53	-0.03	7.68
73.362	21.01	29.55	-0.03	7.68
73.392	21.01	29.55	-0.11	7.59
73.422	21.01	29.55	-0.11	7.59
73.452	21.02	29.56	-0.11	7.59
73.481	21.02	29.56	-0.00	7.70
73.511	21.02	29.56	-0.00	7.70
73.541	20.99	29.53	-0.00	7.70
73.571	20.99	29.53	-0.09	7.62
73.601	20.99	29.53	-0.09	7.62
73.630	20.98	29.52	-0.09	7.62
73.660	20.98	29.52	-0.04	7.67
73.690	20.98	29.52	-0.04	7.67
73.720	20.97	29.51	-0.04	7.67
73.749	20.97	29.51	-0.02	7.68
73.779	20.97	29.51	-0.02	7.68
73.809	21.00	29.54	-0.02	7.68
73.839	21.00	29.54	-0.11	7.59
73.868	21.00	29.54	-0.11	7.59
73.898	20.98	29.52	-0.11	7.59
73.928	20.98	29.52	-0.01	7.70
73.958	20.98	29.52	-0.01	7.70
73.987	20.99	29.53	-0.01	7.70
74.017	20.99	29.53	-0.10	7.61
74.047	20.99	29.53	-0.10	7.61
74.077	21.00	29.54	-0.10	7.61
74.106	21.00	29.54	-0.04	7.67
74.136	21.00	29.54	-0.04	7.67
74.166	20.99	29.53	-0.04	7.67
74.196	20.99	29.53	-0.03	7.68
74.225	20.99	29.53	-0.03	7.68
74.255	21.01	29.55	-0.03	7.68
74.285	21.01	29.55	-0.12	7.59
74.315	21.01	29.55	-0.12	7.59
74.345	21.02	29.56	-0.12	7.59
74.374	21.02	29.56	-0.00	7.70
74.404	21.02	29.56	-0.00	7.70
74.434	21.01	29.55	-0.00	7.70
74.464	21.01	29.55	-0.10	7.61
74.493	21.01	29.55	-0.10	7.61
74.523	20.99	29.53	-0.10	7.61
74.553	20.99	29.53	-0.04	7.67
74.583	20.99	29.53	-0.04	7.67
74.612	20.97	29.51	-0.04	7.67
74.642	20.97	29.51	-0.02	7.69
74.672	20.97	29.51	-0.02	7.69
74.702	20.98	29.52	-0.02	7.69
74.731	20.98	29.52	-0.11	7.60
74.761	20.98	29.52	-0.11	7.60
74.791	21.00	29.54	-0.11	7.60
74.821	21.00	29.54	-0.00	7.70
74.850	21.00	29.54	-0.00	7.70
74.880	20.99	29.53	-0.00	7.70
74.910	20.99	29.53	-0.10	7.61
74.940	20.99	29.53	-0.10	7.61
74.970	20.98	29.52	-0.10	7.61
74.999	20.98	29.52	-0.04	7.67
75.029	20.98	29.52	-0.04	7.67
75.059	20.98	29.52	-0.04	7.67
75.089	20.98	29.52	-0.02	7.68
75.118	20.98	29.52	-0.02	7.68
75.148	20.97	29.51	-0.02	7.68
75.178	20.97	29.51	-0.12	7.59
75.208	20.97	29.51	-0.12	7.59
75.237	20.99	29.53	-0.12	7.59
75.267	20.99	29.53	-0.00	7.70
75.297	20.99	29.53	-0.00	7.70
75.327	21.04	29.58	-0.00	7.70
75.356	21.04	29.58	-0.09	7.62
75.386	21.04	29.58	-0.09	7.62
75.416	21.01	29.55	-0.09	7.62
75.446	21.01	29.55	-0.04	7.67
75.475	21.01	29.55	-0.04	7.67
75.505	21.00	29.54	-0.04	7.67
75.535	21.00	29.54	-0.02	7.69
75.565	21.00	29.54	-0.02	7.69
75.595	21.00	29.54	-0.02	7.69
75.624	21.00	29.54	-0.11	7.60
75.654	21.00	29.54	-0.11	7.60
75.684	21.01	29.55	-0.11	7.60
75.714	21.01	29.55	-0.01	7.70
75.743	21.01	29.55	-0.01	7.70
75.773	20.99	29.53	-0.01	7.70
75.803	20.99	29.53	-0.10	7.61
75.833	20.99	29.53	-0.10	7.61
75.862	21.01	29.55	-0.10	7.61
75.892	21.01	29.55	-0.05	7.66
75.922	21.01	29.55	-0.05	7.66
75.952	21.01	29.55	-0.05	7.66
75.981	21.01	29.55	-0.03	7.68
76.011	21.01	29.55	-0.03	7.68
76.041	21.00	29.54	-0.03	7.68
76.071	21.00	29.54	-0.11	7.59
76.100	21.00	29.54	-0.11	7.59
76.130	21.01	29.55	-0.11	7.59
76.160	21.01	29.55	-0.01	7.70
76.190	21.01	29.55	-0.01	7.70
76.219	21.01	29.55	-0.01	7.70
76.249	21.01	29.55	-0.10	7.61
76.279	21.01	29.55	-0.10	7.61
76.309	20.98	29.52	-0.10	7.61
76.339	20.98	29.52	-0.05	7.66
76.368	20.98	29.52	-0.05	7.66
76.398	20.97	29.51	-0.05	7.66
76.428	20.97	29.51	-0.02	7.69
76.458	20.97	29.51	-0.02	7.69
76.487	20.96	29.50	-0.02	7.69
76.517	20.96	29.50	-0.12	7.59
76.547	20.96	29.50	-0.12	7.59
76.577	20.99	29.53	-0.12	7.59
76.606	20.99	29.53	-0.01	7.70
76.636	20.99	29.53	-0.01	7.70
76.666	21.00	29.54	-0.01	7.70
76.696	21.00	29.54	-0.10	7.61
76.725	21.00	29.54	-0.10	7.61
76.755	20.98	29.52	-0.10	7.61
76.785	20.98	29.52	-0.05	7.66
76.815	20.98	29.52	-0.05	7.66
76.844	20.99	29.53	-0.05	7.66
76.874	20.99	29.53	-0.02	7.69
76.904	20.99	29.53	-0.02	7.69
76.934	21.01	29.55	-0.02	7.69
76.964	21.01	29.55	-0.11	7.59
76.993	21.01	29.55	-0.11	7.59
77.023	21.01	29.55	-0.11	7.59
77.053	21.01	29.55	-0.00	7.70
77.083	21.01	29.55	-0.00	7.70
77.112	21.01	29.55	-0.00	7.70
77.142	21.01	29.55	-0.10	7.61
77.172	21.01	29.55	-0.10	7.61
77.202	21.00	29.54	-0.10	7.61
77.231	21.00	29.54	-0.05	7.66
77.261	21.00	29.54	-0.05	7.66
77.291	21.00	29.54	-0.05	7.66
77.321	21.00	29.54	-0.02	7.69
77.350	21.00	29.54	-0.02	7.69
77.380	21.00	29.54	-0.02	7.69
77.410	21.00	29.54	-0.12	7.59
77.440	21.00	29.54	-0.12	7.59
77.469	21.02	29.56	-0.12	7.59
77.499	21.02	29.56	-0.01	7.70
77.529	21.02	29.56	-0.01	7.70
77.559	21.02	29.56	-0.01	7.70
77.588	21.02	29.56	-0.10	7.61
77.618	21.02	29.56	-0.10	7.61
77.648	20.99	29.53	-0.10	7.61
77.678	20.99	29.53	-0.05	7.65
77.708	20.99	29.53	-0.05	7.65
77.737	21.01	29.55	-0.05	7.65
77.767	21.01	29.55	-0.02	7.69
77.797	21.01	29.55	-0.02	7.69
77.827	20.99	29.53	-0.02	7.69
77.856	20.99	29.53	-0.11	7.59
77.886	20.99	29.53	-0.11	7.59
77.916	21.01	29.55	-0.11	7.59
77.946	21.01	29.55	-0.01	7.70
77.975	21.01	29.55	-0.01	7.70
78.005	21.02	29.56	-0.01	7.70
78.035	21.02	29.56	-0.10	7.61
78.065	21.02	29.56	-0.10	7.61
78.094	21.00	29.54	-0.10	7.61
78.124	21.00	29.54	-0.05	7.66
78.154	21.00	29.54	-0.05	7.66
78.184	20.99	29.53	-0.05	7.66
78.213	20.99	29.53	-0.02	7.69
78.243	20.99	29.53	-0.02	7.69
78.273	21.00	29.54	-0.02	7.69
78.303	21.00	29.54	-0.11	7.59
78.332	21.00	29.54	-0.11	7.59
78.362	21.01	29.55	-0.11	7.59
78.392	21.01	29.55	-0.01	7.70
78.422	21.01	29.55	-0.01	7.70
78.452	21.01	29.55	-0.01	7.70
78.481	21.01	29.55	-0.09	7.62
78.511	21.01	29.55	-0.09	7.62
78.541	21.00	29.54	-0.09	7.62
78.571	21.00	29.54	-0.06	7.65
78.600	21.00	29.54	-0.06	7.65
78.630	21.00	29.54	-0.06	7.65
78.660	21.00	29.54	-0.01	7.69
78.690	21.00	29.54	-0.01	7.69
78.719	21.00	29.54	-0.01	7.69
78.749	21.00	29.54	-0.12	7.59
78.779	21.00	29.54	-0.12	7.59
78.809	21.02	29.56	-0.12	7.59
78.838	21.02	29.56	-0.01	7.70
78.868	21.02	29.56	-0.01	7.70
78.898	21.02	29.56	-0.01	7.70
78.928	21.02	29.56	-0.09	7.62
78.957	21.02	29.56	-0.09	7.62
78.987	21.02	29.56	-0.09	7.62
79.017	21.02	29.56	-0.06	7.65
79.047	21.02	29.56	-0.06	7.65
79.076	21.01	29.55	-0.06	7.65
79.106	21.01	29.55	-0.01	7.70
79.136	21.01	29.55	-0.01	7.70
79.166	21.01	29.55	-0.01	7.70
79.195	21.01	29.55	-0.11	7.59
79.225	21.01	29.55	-0.11	7.59
79.255	21.01	29.55	-0.11	7.59
79.285	21.01	29.55	-0.01	7.70
79.314	21.01	29.55	-0.01	7.70
79.344	21.02	29.57	-0.01	7.70
79.374	21.02	29.57	-0.09	7.62
79.404	21.02	29.57	-0.09	7.62
79.434	21.02	29.56	-0.09	7.62
79.463	21.02	29.56	-0.06	7.65
79.493	21.02	29.56	-0.06	7.65
79.523	21.03	29.57	-0.06	7.65
79.553	21.03	29.57	-0.01	7.70
79.582	21.03	29.57	-0.01	7.70
79.612	21.05	29.59	-0.01	7.70
79.642	21.05	29.59	-0.11	7.59
79.672	21.05	29.59	-0.11	7.59
79.701	21.05	29.59	-0.11	7.59
79.731	21.05	29.59	-0.01	7.70
79.761	21.05	29.59	-0.01	7.70
79.791	21.10	29.64	-0.01	7.70
79.820	21.10	29.64	-0.09	7.62
79.850	21.10	29.64	-0.09	7.62
79.880	21.10	29.64	-0.09	7.62
79.910	21.10	29.64	-0.06	7.64
79.939	21.10	29.64	-0.06	7.64
79.969	21.07	29.61	-0.06	7.64
79.999	21.07	29.61	-0.01	7.70
80.029	21.07	29.61	-0.01	7.70
80.059	21.08	29.62	-0.01	7.70
80.088	21.08	29.62	-0.11	7.59
80.118	21.08	29.62	-0.11	7.59
80.148	21.07	29.61	-0.11	7.59
80.178	21.07	29.61	-0.01	7.70
80.207	21.07	29.61	-0.01	7.70
80.237	21.09	29.63	-0.01	7.70
80.267	21.09	29.63	-0.09	7.62
80.297	21.09	29.63	-0.09	7.62
80.326	21.08	29.62	-0.09	7.62
80.356	21.08	29.62	-0.07	7.64
80.386	21.08	29.62	-0.07	7.64
80.416	21.06	29.60	-0.07	7.64
80.445	21.06	29.60	-0.01	7.70
80.475	21.06	29.60	-0.01	7.70
80.505	21.07	29.62	-0.01	7.70
80.535	21.07	29.62	-0.11	7.60
80.564	21.07	29.62	-0.11	7.60
80.594	21.07	29.61	-0.11	7.60
80.624	21.07	29.61	-0.01	7.69
80.654	21.07	29.61	-0.01	7.69
80.683	21.07	29.61	-0.01	7.69
80.713	21.07	29.61	-0.09	7.62
80.743	21.07	29.61	-0.09	7.62
80.773	21.04	29.58	-0.09	7.62
80.803	21.04	29.58	-0.07	7.64
80.832	21.04	29.58	-0.07	7.64
80.862	21.04	29.58	-0.07	7.64
80.892	21.04	29.58	-0.00	7.70
80.922	21.04	29.58	-0.00	7.70
80.951	21.03	29.57	-0.00	7.70
80.981	21.03	29.57	-0.11	7.59
81.011	21.03	29.57	-0.11	7.59
81.041	21.05	29.59	-0.11	7.59
81.070	21.05	29.59	-0.01	7.69
81.100	21.05	29.59	-0.01	7.69
81.130	21.06	29.60	-0.01	7.69
81.160	21.06	29.60	-0.08	7.63
81.189	21.06	29.60	-0.08	7.63
81.219	21.04	29.58	-0.08	7.63
81.249	21.04	29.58	-0.07	7.64
81.279	21.04	29.58	-0.07	7.64
81.308	21.04	29.58	-0.07	7.64
81.338	21.04	29.58	-0.01	7.70
81.368	21.04	29.58	-0.01	7.70
81.398	21.05	29.59	-0.01	7.70
81.427	21.05	29.59	-0.12	7.59
81.457	21.05	29.59	-0.12	7.59
81.487	21.02	29.57	-0.12	7.59
81.517	21.02	29.57	-0.02	7.69
81.547	21.02	29.57	-0.02	7.69
81.576	21.04	29.58	-0.02	7.69
81.606	21.04	29.58	-0.09	7.62
81.636	21.04	29.58	-0.09	7.62
81.666	21.03	29.57	-0.09	7.62
81.695	21.03	29.57	-0.07	7.63
81.725	21.03	29.57	-0.07	7.63
81.755	21.01	29.55	-0.07	7.63
81.785	21.01	29.55	-0.00	7.70
81.814	21.01	29.55	-0.00	7.70
81.844	21.03	29.57	-0.00	7.70
81.874	21.03	29.57	-0.12	7.59
81.904	21.03	29.57	-0.12	7.59
81.933	21.02	29.57	-0.12	7.59
81.963	21.02	29.57	-0.02	7.69
81.993	21.02	29.57	-0.02	7.69
82.023	21.03	29.57	-0.02	7.69
82.052	21.03	29.57	-0.09	7.62
82.082	21.03	29.57	-0.09	7.62
82.112	21.02	29.56	-0.09	7.62
82.142	21.02	29.56	-0.08	7.63
82.171	21.02	29.56	-0.08	7.63
82.201	21.03	29.57	-0.08	7.63
82.231	21.03	29.57	-0.01	7.70
82.261	21.03	29.57	-0.01	7.70
82.291	21.04	29.58	-0.01	7.70
82.320	21.04	29.58	-0.12	7.59
82.350	21.04	29.58	-0.12	7.59
82.380	21.04	29.58	-0.12	7.59
82.410	21.04	29.58	-0.02	7.69
82.439	21.04	29.58	-0.02	7.69
82.469	21.06	29.60	-0.02	7.69
82.499	21.06	29.60	-0.09	7.62
82.529	21.06	29.60	-0.09	7.62
82.558	21.06	29.60	-0.09	7.62
82.588	21.06	29.60	-0.08	7.63
82.618	21.06	29.60	-0.08	7.63
82.648	21.04	29.58	-0.08	7.63
82.677	21.04	29.58	-0.00	7.70
82.707	21.04	29.58	-0.00	7.70
82.737	21.01	29.55	-0.00	7.70
82.767	21.01	29.55	-0.12	7.59
82.796	21.01	29.55	-0.12	7.59
82.826	21.02	29.56	-0.12	7.59
82.856	21.02	29.56	-0.02	7.69
82.886	21.02	29.56	-0.02	7.69
82.916	21.03	29.57	-0.02	7.69
82.945	21.03	29.57	-0.08	7.63
82.975	21.03	29.57	-0.08	7.63
83.005	21.02	29.56	-0.08	7.63
83.035	21.02	29.56	-0.08	7.63
83.064	21.02	29.56	-0.08	7.63
83.094	21.02	29.56	-0.08	7.63
83.124	21.02	29.56	0.00	7.71
83.154	21.02	29.56	0.00	7.71
83.183	21.02	29.56	0.00	7.71
83.213	21.02	29.56	-0.11	7.59
83.243	21.02	29.56	-0.11	7.59
83.273	21.00	29.54	-0.11	7.59
83.302	21.00	29.54	-0.02	7.69
83.332	21.00	29.54	-0.02	7.69
83.362	21.05	29.59	-0.02	7.69
83.392	21.05	29.59	-0.08	7.63
83.421	21.05	29.59	-0.08	7.63
83.451	21.09	29.63	-0.08	7.63
83.481	21.09	29.63	-0.09	7.62
83.511	21.09	29.63	-0.09	7.62
83.540	21.07	29.61	-0.09	7.62
83.570	21.07	29.61	-0.00	7.70
83.600	21.07	29.61	-0.00	7.70
83.630	21.05	29.59	-0.00	7.70
83.659	21.05	29.59	-0.11	7.59
83.689	21.05	29.59	-0.11	7.59
83.719	21.02	29.56	-0.11	7.59
83.749	21.02	29.56	-0.02	7.69
83.778	21.02	29.56	-0.02	7.69
83.808	21.04	29.58	-0.02	7.69
83.838	21.04	29.58	-0.08	7.63
83.868	21.04	29.58	-0.08	7.63
83.898	21.01	29.55	-0.08	7.63
83.927	21.01	29.55	-0.09	7.62
83.957	21.01	29.55	-0.09	7.62
83.987	21.02	29.56	-0.09	7.62
84.017	21.02	29.56	-0.00	7.71
84.046	21.02	29.56	-0.00	7.71
84.076	21.04	29.58	-0.00	7.71
84.106	21.04	29.58	-0.11	7.59
84.136	21.04	29.58	-0.11	7.59
84.165	21.01	29.55	-0.11	7.59
84.195	21.01	29.55	-0.02	7.69
84.225	21.01	29.55	-0.02	7.69
84.255	21.05	29.59	-0.02	7.69
84.284	21.05	29.59	-0.07	7.63
84.314	21.05	29.59	-0.07	7.63
84.344	21.08	29.62	-0.07	7.63
84.374	21.08	29.62	-0.10	7.61
84.403	21.08	29.62	-0.10	7.61
84.433	21.07	29.61	-0.10	7.61
84.463	21.07	29.61	-0.01	7.70
84.493	21.07	29.61	-0.01	7.70
84.523	21.07	29.61	-0.01	7.70
84.552	21.07	29.61	-0.11	7.59
84.582	21.07	29.61	-0.11	7.59
84.612	21.05	29.59	-0.11	7.59
84.642	21.05	29.59	-0.03	7.68
84.671	21.05	29.59	-0.03	7.68
84.701	21.07	29.61	-0.03	7.68
84.731	21.07	29.61	-0.07	7.64
84.761	21.07	29.61	-0.07	7.64
84.790	21.06	29.60	-0.07	7.64
84.820	21.06	29.60	-0.10	7.61
84.850	21.06	29.60	-0.10	7.61
84.880	21.05	29.59	-0.10	7.61
84.909	21.05	29.59	-0.00	7.71
84.939	21.05	29.59	-0.00	7.71
84.969	21.06	29.60	-0.00	7.71
84.999	21.06	29.60	-0.11	7.60
85.028	21.06	29.60	-0.11	7.60
85.058	21.04	29.58	-0.11	7.60
85.088	21.04	29.58	-0.02	7.68
85.118	21.04	29.58	-0.02	7.68
85.148	21.06	29.60	-0.02	7.68
85.177	21.06	29.60	-0.07	7.64
85.207	21.06	29.60	-0.07	7.64
85.237	21.06	29.60	-0.07	7.64
85.267	21.06	29.60	-0.10	7.61
85.296	21.06	29.60	-0.10	7.61
85.326	21.04	29.58	-0.10	7.61
85.356	21.04	29.58	-0.00	7.71
85.386	21.04	29.58	-0.00	7.71
85.415	21.02	29.56	-0.00	7.71
85.445	21.02	29.56	-0.11	7.60
85.475	21.02	29.56	-0.11	7.60
85.505	21.02	29.56	-0.11	7.60
85.534	21.02	29.56	-0.02	7.68
85.564	21.02	29.56	-0.02	7.68
85.594	21.02	29.57	-0.02	7.68
85.624	21.02	29.57	-0.07	7.64
85.653	21.02	29.57	-0.07	7.64
85.683	21.02	29.57	-0.07	7.64
85.713	21.02	29.57	-0.10	7.60
85.743	21.02	29.57	-0.10	7.60
85.772	21.01	29.55	-0.10	7.60
85.802	21.01	29.55	-0.00	7.71
85.832	21.01	29.55	-0.00	7.71
85.862	20.99	29.53	-0.00	7.71
85.892	20.99	29.53	-0.11	7.60
85.921	20.99	29.53	-0.11	7.60
85.951	21.00	29.54	-0.11	7.60
85.981	21.00	29.54	-0.02	7.68
86.011	21.00	29.54	-0.02	7.68
86.040	21.01	29.55	-0.02	7.68
86.070	21.01	29.55	-0.07	7.64
86.100	21.01	29.55	-0.07	7.64
86.130	21.04	29.58	-0.07	7.64
86.159	21.04	29.58	-0.11	7.60
86.189	21.04	29.58	-0.11	7.60
86.219	21.02	29.56	-0.11	7.60
86.249	21.02	29.56	-0.00	7.71
86.278	21.02	29.56	-0.00	7.71
86.308	21.04	29.58	-0.00	7.71
86.338	21.04	29.58	-0.11	7.60
86.368	21.04	29.58	-0.11	7.60
86.397	21.03	29.57	-0.11	7.60
86.427	21.03	29.57	-0.03	7.68
86.457	21.03	29.57	-0.03	7.68
86.487	21.06	29.60	-0.03	7.68
86.516	21.06	29.60	-0.06	7.65
86.546	21.06	29.60	-0.06	7.65
86.576	21.02	29.56	-0.06	7.65
86.606	21.02	29.56	-0.11	7.60
86.636	21.02	29.56	-0.11	7.60
86.665	21.02	29.56	-0.11	7.60
86.695	21.02	29.56	-0.00	7.71
86.725	21.02	29.56	-0.00	7.71
86.755	21.05	29.59	-0.00	7.71
86.784	21.05	29.59	-0.11	7.60
86.814	21.05	29.59	-0.11	7.60
86.844	21.04	29.58	-0.11	7.60
86.874	21.04	29.58	-0.03	7.68
86.903	21.04	29.58	-0.03	7.68
86.933	21.05	29.59	-0.03	7.68
86.963	21.05	29.59	-0.05	7.65
86.993	21.05	29.59	-0.05	7.65
87.022	21.05	29.59	-0.05	7.65
87.052	21.05	29.59	-0.11	7.60
87.082	21.05	29.59	-0.11	7.60
87.112	21.04	29.58	-0.11	7.60
87.142	21.04	29.58	-0.00	7.71
87.171	21.04	29.58	-0.00	7.71
87.201	21.01	29.55	-0.00	7.71
87.231	21.01	29.55	-0.11	7.60
87.261	21.01	29.55	-0.11	7.60
87.290	21.01	29.55	-0.11	7.60
87.320	21.01	29.55	-0.03	7.68
87.350	21.01	29.55	-0.03	7.68
87.380	21.04	29.58	-0.03	7.68
87.409	21.04	29.58	-0.05	7.65
87.439	21.04	29.58	-0.05	7.65
87.469	21.06	29.60	-0.05	7.65
87.499	21.06	29.60	-0.11	7.59
87.528	21.06	29.60	-0.11	7.59
87.558	21.04	29.58	-0.11	7.59
87.588	21.04	29.58	-0.01	7.70
87.618	21.04	29.58	-0.01	7.70
87.647	21.04	29.58	-0.01	7.70
87.677	21.04	29.58	-0.10	7.60
87.707	21.04	29.58	-0.10	7.60
87.737	21.02	29.56	-0.10	7.60
87.766	21.02	29.56	-0.03	7.68
87.796	21.02	29.56	-0.03	7.68
87.826	21.02	29.56	-0.03	7.68
87.856	21.02	29.56	-0.05	7.66
87.886	21.02	29.56	-0.05	7.66
87.915	21.04	29.58	-0.05	7.66
87.945	21.04	29.58	-0.11	7.59
87.975	21.04	29.58	-0.11	7.59
88.005	21.03	29.57	-0.11	7.59
88.034	21.03	29.57	-0.00	7.70
88.064	21.03	29.57	-0.00	7.70
88.094	21.03	29.57	-0.00	7.70
88.124	21.03	29.57	-0.10	7.60
88.153	21.03	29.57	-0.10	7.60
88.183	21.03	29.57	-0.10	7.60
88.213	21.03	29.57	-0.03	7.68
88.243	21.03	29.57	-0.03	7.68
88.272	21.03	29.57	-0.03	7.68
88.302	21.03	29.57	-0.05	7.66
88.332	21.03	29.57	-0.05	7.66
88.362	21.02	29.56	-0.05	7.66
88.391	21.02	29.56	-0.12	7.59
88.421	21.02	29.56	-0.12	7.59
88.451	21.01	29.55	-0.12	7.59
88.481	21.01	29.55	-0.00	7.70
88.510	21.01	29.55	-0.00	7.70
88.540	21.02	29.56	-0.00	7.70
88.570	21.02	29.56	-0.10	7.61
88.600	21.02	29.56	-0.10	7.61
88.630	21.03	29.57	-0.10	7.61
88.659	21.03	29.57	-0.03	7.68
88.689	21.03	29.57	-0.03	7.68
88.719	21.00	29.54	-0.03	7.68
88.749	21.00	29.54	-0.04	7.67
88.778	21.00	29.54	-0.04	7.67
88.808	21.03	29.57	-0.04	7.67
88.838	21.03	29.57	-0.11	7.60
88.868	21.03	29.57	-0.11	7.60
88.897	21.02	29.56	-0.11	7.60
88.927	21.02	29.56	-0.00	7.71
88.957	21.02	29.56	-0.00	7.71
88.987	21.00	29.54	-0.00	7.71
89.016	21.00	29.54	-0.10	7.61
89.046	21.00	29.54	-0.10	7.61
89.076	21.01	29.55	-0.10	7.61
89.106	21.01	29.55	-0.04	7.67
89.135	21.01	29.55	-0.04	7.67
89.165	21.02	29.57	-0.04	7.67
89.195	21.02	29.57	-0.04	7.67
89.225	21.02	29.57	-0.04	7.67
89.254	21.01	29.55	-0.04	7.67
89.284	21.01	29.55	-0.12	7.59
89.314	21.01	29.55	-0.12	7.59
89.344	21.00	29.54	-0.12	7.59
89.373	21.00	29.54	-0.00	7.71
89.403	21.00	29.54	-0.00	7.71
89.433	21.00	29.54	-0.00	7.71
89.463	21.00	29.54	-0.10	7.61
89.493	21.00	29.54	-0.10	7.61
89.522	21.01	29.55	-0.10	7.61
89.552	21.01	29.55	-0.04	7.67
89.582	21.01	29.55	-0.04	7.67
89.612	20.99	29.53	-0.04	7.67
89.641	20.99	29.53	-0.03	7.68
89.671	20.99	29.53	-0.03	7.68
89.701	21.02	29.56	-0.03	7.68
89.731	21.02	29.56	-0.12	7.59
89.760	21.02	29.56	-0.12	7.59
89.790	21.03	29.57	-0.12	7.59
89.820	21.03	29.57	-0.00	7.70
89.850	21.03	29.57	-0.00	7.70
89.879	21.00	29.54	-0.00	7.70
89.909	21.00	29.54	-0.10	7.61
89.939	21.00	29.54	-0.10	7.61
89.969	21.02	29.56	-0.10	7.61
89.998	21.02	29.56	-0.04	7.67
90.028	21.02	29.56	-0.04	7.67
90.058	21.00	29.54	-0.04	7.67
90.088	21.00	29.54	-0.03	7.68
90.118	21.00	29.54	-0.03	7.68
90.147	21.02	29.56	-0.03	7.68
90.177	21.02	29.56	-0.12	7.59
90.207	21.02	29.56	-0.12	7.59
90.237	21.01	29.55	-0.12	7.59
90.266	21.01	29.55	-0.01	7.70
90.296	21.01	29.55	-0.01	7.70
90.326	21.02	29.57	-0.01	7.70
90.356	21.02	29.57	-0.10	7.61
90.385	21.02	29.57	-0.10	7.61
90.415	21.02	29.56	-0.10	7.61
90.445	21.02	29.56	-0.04	7.67
90.475	21.02	29.56	-0.04	7.67
90.504	21.02	29.56	-0.04	7.67
90.534	21.02	29.56	-0.02	7.69
90.564	21.02	29.56	-0.02	7.69
90.594	21.04	29.58	-0.02	7.69
90.623	21.04	29.58	-0.12	7.59
90.653	21.04	29.58	-0.12	7.59
90.683	21.06	29.60	-0.12	7.59
90.713	21.06	29.60	-0.00	7.70
90.743	21.06	29.60	-0.00	7.70
90.772	21.04	29.58	-0.00	7.70
90.802	21.04	29.58	-0.10	7.61
90.832	21.04	29.58	-0.10	7.61
90.862	20.99	29.53	-0.10	7.61
90.891	20.99	29.53	-0.05	7.66
90.921	20.99	29.53	-0.05	7.66
90.951	21.00	29.54	-0.05	7.66
90.981	21.00	29.54	-0.02	7.69
91.010	21.00	29.54	-0.02	7.69
91.040	21.03	29.57	-0.02	7.69
91.070	21.03	29.57	-0.11	7.59
91.100	21.03	29.57	-0.11	7.59
91.129	21.02	29.56	-0.11	7.59
91.159	21.02	29.56	-0.01	7.70
91.189	21.02	29.56	-0.01	7.70
91.219	21.02	29.56	-0.01	7.70
91.248	21.02	29.56	-0.09	7.62
91.278	21.02	29.56	-0.09	7.62
91.308	21.02	29.56	-0.09	7.62
91.338	21.02	29.56	-0.05	7.66
91.367	21.02	29.56	-0.05	7.66
91.397	20.99	29.53	-0.05	7.66
91.427	20.99	29.53	-0.02	7.69
91.457	20.99	29.53	-0.02	7.69
91.487	21.00	29.54	-0.02	7.69
91.516	21.00	29.54	-0.11	7.60
91.546	21.00	29.54	-0.11	7.60
91.576	21.01	29.55	-0.11	7.60
91.606	21.01	29.55	-0.00	7.70
91.635	21.01	29.55	-0.00	7.70
91.665	20.99	29.53	-0.00	7.70
91.695	20.99	29.53	-0.09	7.62
91.725	20.99	29.53	-0.09	7.62
91.754	21.00	29.54	-0.09	7.62
91.784	21.00	29.54	-0.05	7.66
91.814	21.00	29.54	-0.05	7.66
91.844	20.98	29.52	-0.05	7.66
91.873	20.98	29.52	-0.01	7.69
91.903	20.98	29.52	-0.01	7.69
91.933	21.00	29.54	-0.01	7.69
91.963	21.00	29.54	-0.12	7.59
91.993	21.00	29.54	-0.12	7.59
92.022	21.02	29.56	-0.12	7.59
92.052	21.02	29.56	-0.00	7.70
92.082	21.02	29.56	-0.00	7.70
92.112	21.01	29.55	-0.00	7.70
92.141	21.01	29.55	-0.10	7.61
92.171	21.01	29.55	-0.10	7.61
92.201	21.00	29.54	-0.10	7.61
92.231	21.00	29.54	-0.05	7.66
92.260	21.00	29.54	-0.05	7.66
92.290	21.03	29.57	-0.05	7.66
92.320	21.03	29.57	-0.02	7.69
92.350	21.03	29.57	-0.02	7.69
92.379	21.02	29.56	-0.02	7.69
92.409	21.02	29.56	-0.12	7.59
92.439	21.02	29.56	-0.12	7.59
92.469	21.05	29.59	-0.12	7.59
92.498	21.05	29.59	-0.00	7.70
92.528	21.05	29.59	-0.00	7.70
92.558	21.03	29.57	-0.00	7.70
92.588	21.03	29.57	-0.10	7.61
92.617	21.03	29.57	-0.10	7.61
92.647	21.01	29.55	-0.10	7.61
92.677	21.01	29.55	-0.05	7.65
92.707	21.01	29.55	-0.05	7.65
92.737	21.01	29.55	-0.05	7.65
92.766	21.01	29.55	-0.01	7.69
92.796	21.01	29.55	-0.01	7.69
92.826	21.01	29.55	-0.01	7.69
92.856	21.01	29.55	-0.12	7.59
92.885	21.01	29.55	-0.12	7.59
92.915	21.01	29.55	-0.12	7.59
92.945	21.01	29.55	-0.01	7.70
92.975	21.01	29.55	-0.01	7.70
93.004	20.99	29.53	-0.01	7.70
93.034	20.99	29.53	-0.09	7.62
93.064	20.99	29.53	-0.09	7.62
93.094	21.03	29.57	-0.09	7.62
93.123	21.03	29.57	-0.06	7.65
93.153	21.03	29.57	-0.06	7.65
93.183	21.01	29.55	-0.06	7.65
93.213	21.01	29.55	-0.01	7.70
93.243	21.01	29.55	-0.01	7.70
93.272	21.00	29.54	-0.01	7.70
93.302	21.00	29.54	-0.12	7.59
93.332	21.00	29.54	-0.12	7.59
93.362	21.04	29.58	-0.12	7.59
93.391	21.04	29.58	-0.01	7.69
93.421	21.04	29.58	-0.01	7.69
93.451	21.03	29.57	-0.01	7.69
93.481	21.03	29.57	-0.09	7.62
93.510	21.03	29.57	-0.09	7.62
93.540	20.99	29.53	-0.09	7.62
93.570	20.99	29.53	-0.06	7.65
93.600	20.99	29.53	-0.06	7.65
93.629	20.99	29.53	-0.06	7.65
93.659	20.99	29.53	-0.01	7.70
93.689	20.99	29.53	-0.01	7.70
93.719	21.00	29.54	-0.01	7.70
93.748	21.00	29.54	-0.12	7.59
93.778	21.00	29.54	-0.12	7.59
93.808	20.99	29.53	-0.12	7.59
93.838	20.99	29.53	-0.01	7.70
93.868	20.99	29.53	-0.01	7.70
93.897	20.99	29.53	-0.01	7.70
93.927	20.99	29.53	-0.09	7.62
93.957	20.99	29.53	-0.09	7.62
93.987	21.00	29.54	-0.09	7.62
94.016	21.00	29.54	-0.06	7.64
94.046	21.00	29.54	-0.06	7.64
94.076	21.00	29.54	-0.06	7.64
94.106	21.00	29.54	-0.01	7.70
94.135	21.00	29.54	-0.01	7.70
94.165	21.00	29.54	-0.01	7.70
94.195	21.00	29.54	-0.11	7.60
94.225	21.00	29.54	-0.11	7.60
94.254	21.00	29.54	-0.11	7.60
94.284	21.00	29.54	-0.01	7.70
94.314	21.00	29.54	-0.01	7.70
94.344	20.98	29.52	-0.01	7.70
94.373	20.98	29.52	-0.09	7.62
94.403	20.98	29.52	-0.09	7.62
94.433	20.98	29.52	-0.09	7.62
94.463	20.98	29.52	-0.06	7.64
94.492	20.98	29.52	-0.06	7.64
94.522	20.98	29.52	-0.06	7.64
94.552	20.98	29.52	-0.01	7.70
94.582	20.98	29.52	-0.01	7.70
94.612	21.00	29.54	-0.01	7.70
94.641	21.00	29.54	-0.11	7.60
94.671	21.00	29.54	-0.11	7.60
94.701	21.01	29.55	-0.11	7.60
94.731	21.01	29.55	-0.02	7.69
94.760	21.01	29.55	-0.02	7.69
94.790	21.00	29.54	-0.02	7.69
94.820	21.00	29.54	-0.09	7.62
94.850	21.00	29.54	-0.09	7.62
94.879	21.00	29.54	-0.09	7.62
94.909	21.00	29.54	-0.07	7.64
94.939	21.00	29.54	-0.07	7.64
94.969	20.99	29.53	-0.07	7.64
94.998	20.99	29.53	-0.01	7.70
95.028	20.99	29.53	-0.01	7.70
95.058	21.00	29.54	-0.01	7.70
95.088	21.00	29.54	-0.11	7.60
95.117	21.00	29.54	-0.11	7.60
95.147	21.02	29.56	-0.11	7.60
95.177	21.02	29.56	-0.02	7.69
95.207	21.02	29.56	-0.02	7.69
95.236	21.03	29.57	-0.02	7.69
95.266	21.03	29.57	-0.09	7.62
95.296	21.03	29.57	-0.09	7.62
95.326	21.00	29.54	-0.09	7.62
95.356	21.00	29.54	-0.08	7.63
95.385	21.00	29.54	-0.08	7.63
95.415	21.00	29.54	-0.08	7.63
95.445	21.00	29.54	-0.01	7.70
95.475	21.00	29.54	-0.01	7.70
95.504	21.00	29.54	-0.01	7.70
95.534	21.00	29.54	-0.11	7.59
95.564	21.00	29.54	-0.11	7.59
95.594	21.01	29.55	-0.11	7.59
95.623	21.01	29.55	-0.02	7.69
95.653	21.01	29.55	-0.02	7.69
95.683	21.00	29.54	-0.02	7.69
95.713	21.00	29.54	-0.09	7.62
95.742	21.00	29.54	-0.09	7.62
95.772	20.98	29.52	-0.09	7.62
95.802	20.98	29.52	-0.08	7.63
95.832	20.98	29.52	-0.08	7.63
95.861	21.01	29.55	-0.08	7.63
95.891	21.01	29.55	-0.01	7.70
95.921	21.01	29.55	-0.01	7.70
95.951	21.00	29.54	-0.01	7.70
95.981	21.00	29.54	-0.11	7.59
96.010	21.00	29.54	-0.11	7.59
96.040	21.01	29.55	-0.11	7.59
96.070	21.01	29.55	-0.02	7.69
96.100	21.01	29.55	-0.02	7.69
96.129	21.00	29.54	-0.02	7.69
96.159	21.00	29.54	-0.08	7.63
96.189	21.00	29.54	-0.08	7.63
96.219	20.98	29.52	-0.08	7.63
96.248	20.98	29.52	-0.09	7.62
96.278	20.98	29.52	-0.09	7.62
96.308	20.98	29.52	-0.09	7.62
96.338	20.98	29.52	-0.00	7.70
96.367	20.98	29.52	-0.00	7.70
96.397	20.97	29.51	-0.00	7.70
96.427	20.97	29.51	-0.11	7.59
96.457	20.97	29.51	-0.11	7.59
96.486	20.99	29.53	-0.11	7.59
96.516	20.99	29.53	-0.02	7.69
96.546	20.99	29.53	-0.02	7.69
96.576	20.99	29.53	-0.02	7.69
96.605	20.99	29.53	-0.08	7.63
96.635	20.99	29.53	-0.08	7.63
96.665	21.00	29.54	-0.08	7.63
96.695	21.00	29.54	-0.09	7.62
96.725	21.00	29.54	-0.09	7.62
96.754	21.00	29.54	-0.09	7.62
96.784	21.00	29.54	-0.01	7.70
96.814	21.00	29.54	-0.01	7.70
96.844	21.00	29.54	-0.01	7.70
96.873	21.00	29.54	-0.12	7.59
96.903	21.00	29.54	-0.12	7.59
96.933	21.01	29.55	-0.12	7.59
96.963	21.01	29.55	-0.02	7.69
96.992	21.01	29.55	-0.02	7.69
97.022	21.01	29.55	-0.02	7.69
97.052	21.01	29.55	-0.08	7.63
97.082	21.01	29.55	-0.08	7.63
97.111	21.00	29.54	-0.08	7.63
97.141	21.00	29.54	-0.09	7.62
97.171	21.00	29.54	-0.09	7.62
97.201	21.00	29.54	-0.09	7.62
97.230	21.00	29.54	-0.00	7.70
97.260	21.00	29.54	-0.00	7.70
97.290	20.99	29.53	-0.00	7.70
97.320	20.99	29.53	-0.11	7.60
97.349	20.99	29.53	-0.11	7.60
97.379	20.98	29.52	-0.11	7.60
97.409	20.98	29.52	-0.02	7.68
97.439	20.98	29.52	-0.02	7.68
97.468	20.99	29.53	-0.02	7.68
97.498	20.99	29.53	-0.08	7.63
97.528	20.99	29.53	-0.08	7.63
97.558	20.99	29.53	-0.08	7.63
97.588	20.99	29.53	-0.09	7.62
97.617	20.99	29.53	-0.09	7.62
97.647	20.97	29.51	-0.09	7.62
97.677	20.97	29.51	-0.01	7.70
97.707	20.97	29.51	-0.01	7.70
97.736	21.00	29.54	-0.01	7.70
97.766	21.00	29.54	-0.11	7.59
97.796	21.00	29.54	-0.11	7.59
97.826	21.01	29.55	-0.11	7.59
97.855	21.01	29.55	-0.02	7.69
97.885	21.01	29.55	-0.02	7.69
97.915	21.03	29.57	-0.02	7.69
97.945	21.03	29.57	-0.08	7.63
97.974	21.03	29.57	-0.08	7.63
98.004	21.00	29.54	-0.08	7.63
98.034	21.00	29.54	-0.09	7.62
98.064	21.00	29.54	-0.09	7.62
98.094	21.02	29.56	-0.09	7.62
98.123	21.02	29.56	-0.00	7.70
98.153	21.02	29.56	-0.00	7.70
98.183	21.01	29.55	-0.00	7.70
98.213	21.01	29.55	-0.11	7.60
98.242	21.01	29.55	-0.11	7.60
98.272	21.02	29.56	-0.11	7.60
98.302	21.02	29.56	-0.02	7.69
98.332	21.02	29.56	-0.02	7.69
98.361	21.03	29.57	-0.02	7.69
98.391	21.03	29.57	-0.07	7.64
98.421	21.03	29.57	-0.07	7.64
98.451	21.00	29.54	-0.07	7.64
98.480	21.00	29.54	-0.10	7.61
98.510	21.00	29.54	-0.10	7.61
98.540	20.98	29.52	-0.10	7.61
98.570	20.98	29.52	-0.00	7.70
98.599	20.98	29.52	-0.00	7.70
98.629	20.99	29.53	-0.00	7.70
98.659	20.99	29.53	-0.12	7.59
98.689	20.99	29.53	-0.12	7.59
98.719	20.99	29.53	-0.12	7.59
98.748	20.99	29.53	-0.03	7.68
98.778	20.99	29.53	-0.03	7.68
98.808	21.03	29.57	-0.03	7.68
98.838	21.03	29.57	-0.07	7.64
98.867	21.03	29.57	-0.07	7.64
98.897	21.01	29.55	-0.07	7.64
98.927	21.01	29.55	-0.10	7.61
98.957	21.01	29.55	-0.10	7.61
98.986	21.01	29.55	-0.10	7.61
99.016	21.01	29.55	-0.00	7.71
99.046	21.01	29.55	-0.00	7.71
99.076	21.00	29.54	-0.00	7.71
99.105	21.00	29.54	-0.11	7.60
99.135	21.00	29.54	-0.11	7.60
99.165	21.02	29.57	-0.11	7.60
99.195	21.02	29.57	-0.02	7.68
99.224	21.02	29.57	-0.02	7.68
99.254	21.03	29.57	-0.02	7.68
99.284	21.03	29.57	-0.07	7.64
99.314	21.03	29.57	-0.07	7.64
99.343	21.02	29.56	-0.07	7.64
99.373	21.02	29.56	-0.10	7.61
99.403	21.02	29.56	-0.10	7.61
99.433	21.01	29.55	-0.10	7.61
99.462	21.01	29.55	0.00	7.71
99.492	21.01	29.55	0.00	7.71
99.522	21.02	29.56	0.00	7.71
99.552	21.02	29.56	-0.11	7.60
99.581	21.02	29.56	-0.11	7.60
99.611	21.02	29.56	-0.11	7.60
99.641	21.02	29.56	-0.03	7.68
99.671	21.02	29.56	-0.03	7.68
99.700	21.06	29.60	-0.03	7.68
99.730	21.06	29.60	-0.07	7.64
99.760	21.06	29.60	-0.07	7.64
99.790	21.05	29.59	-0.07	7.64
99.820	21.05	29.59	-0.10	7.60
99.849	21.05	29.59	-0.10	7.60
99.879	21.04	29.58	-0.10	7.60
99.909	21.04	29.58	-0.00	7.71
99.939	21.04	29.58	-0.00	7.71
99.968	21.02	29.56	-0.00	7.71
99.998	21.02	29.56	-0.11	7.60
100.028	21.02	29.56	-0.11	7.60
100.058	21.01	29.55	-0.11	7.60
100.087	21.01	29.55	-0.03	7.68
100.117	21.01	29.55	-0.03	7.68
100.147	21.03	29.57	-0.03	7.68
100.177	21.03	29.57	-0.06	7.65
100.206	21.03	29.57	-0.06	7.65
100.236	21.00	29.54	-0.06	7.65
100.266	21.00	29.54	-0.11	7.60
100.296	21.00	29.54	-0.11	7.60
100.325	21.01	29.55	-0.11	7.60
100.355	21.01	29.55	-0.01	7.70
100.385	21.01	29.55	-0.01	7.70
100.415	19.49	28.03	-0.01	7.70
100.444	19.49	28.03	-0.11	7.60
100.474	19.49	28.03	-0.11	7.60
100.504	4.16	12.70	-0.11	7.60
100.534	4.16	12.70	-0.03	7.68
100.563	4.16	12.70	-0.03	7.68
100.593	-5.48	3.06	-0.03	7.68
100.623	-5.48	3.06	-0.06	7.64
100.653	-5.48	3.06	-0.06	7.64
100.683	-3.15	5.39	-0.06	7.64
100.712	-3.15	5.39	-0.11	7.60
100.742	-3.15	5.39	-0.11	7.60
100.772	0.41	8.95	-0.11	7.60
100.802	0.41	8.95	-0.00	7.70
100.831	0.41	8.95	-0.00	7.70
100.861	2.55	11.09	-0.00	7.70
100.891	2.55	11.09	-0.11	7.60
100.921	2.55	11.09	-0.11	7.60
100.950	1.28	9.82	-0.11	7.60
100.980	1.28	9.82	-0.03	7.68
101.010	1.28	9.82	-0.03	7.68
101.040	-0.93	7.61	-0.03	7.68
101.070	-0.93	7.61	-0.06	7.65
101.099	-0.93	7.61	-0.06	7.65
101.129	-0.99	7.55	-0.06	7.65
101.159	-0.99	7.55	-0.12	7.59
101.189	-0.99	7.55	-0.12	7.59
101.218	-0.17	8.37	-0.12	7.59
101.248	-0.17	8.37	-0.00	7.70
101.278	-0.17	8.37	-0.00	7.70
101.308	0.50	9.04	-0.00	7.70
101.338	0.50	9.04	-0.11	7.60
101.367	0.50	9.04	-0.11	7.60
101.397	0.41	8.95	-0.11	7.60
101.427	0.41	8.95	-0.03	7.68
101.457	0.41	8.95	-0.03	7.68
101.486	-0.13	8.41	-0.03	7.68
101.516	-0.13	8.41	-0.06	7.65
101.546	-0.13	8.41	-0.06	7.65
101.576	-0.33	8.22	-0.06	7.65
101.605	-0.33	8.22	-0.11	7.60
101.635	-0.33	8.22	-0.11	7.60
101.665	-0.15	8.39	-0.11	7.60
101.695	-0.15	8.39	-0.00	7.70
101.725	-0.15	8.39	-0.00	7.70
101.754	0.02	8.57	-0.00	7.70
101.784	0.02	8.57	-0.11	7.60
101.814	0.02	8.57	-0.11	7.60
101.844	0.01	8.55	-0.11	7.60
101.873	0.01	8.55	-0.03	7.68
101.903	0.01	8.55	-0.03	7.68
101.933	-0.11	8.43	-0.03	7.68
101.963	-0.11	8.43	-0.05	7.65
101.993	-0.11	8.43	-0.05	7.65
102.022	-0.16	8.38	-0.05	7.65
102.052	-0.16	8.38	-0.11	7.59
102.082	-0.16	8.38	-0.11	7.59
102.112	-0.12	8.42	-0.11	7.59
102.141	-0.12	8.42	-0.01	7.70
102.171	-0.12	8.42	-0.01	7.70
102.201	-0.08	8.47	-0.01	7.70
102.231	-0.08	8.47	-0.11	7.60
102.260	-0.08	8.47	-0.11	7.60
102.290	-0.08	8.46	-0.11	7.60
102.320	-0.08	8.46	-0.03	7.68
102.350	-0.08	8.46	-0.03	7.68
102.380	-0.11	8.43	-0.03	7.68
102.409	-0.11	8.43	-0.06	7.65
102.439	-0.11	8.43	-0.06	7.65
102.469	-0.10	8.44	-0.06	7.65
102.499	-0.10	8.44	-0.12	7.59
102.528	-0.10	8.44	-0.12	7.59
102.558	-0.08	8.46	-0.12	7.59
102.588	-0.08	8.46	-0.01	7.70
102.618	-0.08	8.46	-0.01	7.70
102.648	-0.07	8.47	-0.01	7.70
102.677	-0.07	8.47	-0.11	7.60
102.707	-0.07	8.47	-0.11	7.60
102.737	-0.07	8.47	-0.11	7.60
102.767	-0.07	8.47	-0.03	7.68
102.796	-0.07	8.47	-0.03	7.68
102.826	-0.07	8.47	-0.03	7.68
102.856	-0.07	8.47	-0.05	7.65
102.886	-0.07	8.47	-0.05	7.65
102.916	-0.07	8.47	-0.05	7.65
102.945	-0.07	8.47	-0.11	7.59
102.975	-0.07	8.47	-0.11	7.59
103.005	-0.06	8.48	-0.11	7.59
103.035	-0.06	8.48	-0.01	7.70
103.064	-0.06	8.48	-0.01	7.70
103.094	-0.06	8.48	-0.01	7.70
103.124	-0.06	8.48	-0.11	7.60
103.154	-0.06	8.48	-0.11	7.60
103.183	-0.06	8.48	-0.11	7.60
103.213	-0.06	8.48	-0.03	7.68
103.243	-0.06	8.48	-0.03	7.68
103.273	-0.05	8.49	-0.03	7.68
103.303	-0.05	8.49	-0.05	7.66
103.332	-0.05	8.49	-0.05	7.66
103.362	-0.06	8.48	-0.05	7.66
103.392	-0.06	8.48	-0.12	7.59
103.422	-0.06	8.48	-0.12	7.59
103.451	-0.01	8.53	-0.12	7.59
103.481	-0.01	8.53	-0.01	7.70
103.511	-0.01	8.53	-0.01	7.70
103.541	-0.03	8.51	-0.01	7.70
103.571	-0.03	8.51	-0.11	7.60
103.600	-0.03	8.51	-0.11	7.60
103.630	-0.12	8.42	-0.11	7.60
103.660	-0.12	8.42	-0.04	7.67
103.690	-0.12	8.42	-0.04	7.67
103.719	-0.09	8.45	-0.04	7.67
103.749	-0.09	8.45	-0.05	7.66
103.779	-0.09	8.45	-0.05	7.66
103.809	-0.09	8.45	-0.05	7.66
103.838	-0.09	8.45	-0.12	7.59
103.868	-0.09	8.45	-0.12	7.59
103.898	-0.04	8.50	-0.12	7.59
103.928	-0.04	8.50	-0.01	7.70
103.958	-0.04	8.50	-0.01	7.70
103.987	-0.07	8.47	-0.01	7.70
104.017	-0.07	8.47	-0.10	7.60
104.047	-0.07	8.47	-0.10	7.60
104.077	-0.11	8.43	-0.10	7.60
104.106	-0.11	8.43	-0.04	7.67
104.136	-0.11	8.43	-0.04	7.67
104.166	-0.29	8.25	-0.04	7.67
104.196	-0.29	8.25	-0.04	7.67
104.226	-0.29	8.25	-0.04	7.67
104.255	-0.44	8.10	-0.04	7.67
104.285	-0.44	8.10	-0.12	7.59
104.315	-0.44	8.10	-0.12	7.59
104.345	-0.47	8.07	-0.12	7.59
104.374	-0.47	8.07	-0.00	7.70
104.404	-0.47	8.07	-0.00	7.70
104.434	-0.49	8.05	-0.00	7.70
104.464	-0.49	8.05	-0.10	7.61
104.494	-0.49	8.05	-0.10	7.61
104.523	-0.49	8.05	-0.10	7.61
104.553	-0.49	8.05	-0.04	7.67
104.583	-0.49	8.05	-0.04	7.67
104.613	-0.53	8.01	-0.04	7.67
104.642	-0.53	8.01	-0.04	7.67
104.672	-0.53	8.01	-0.04	7.67
104.702	-0.61	7.93	-0.04	7.67
104.732	-0.61	7.93	-0.12	7.59
104.761	-0.61	7.93	-0.12	7.59
104.791	-0.63	7.92	-0.12	7.59
104.821	-0.63	7.92	-0.00	7.70
104.851	-0.63	7.92	-0.00	7.70
104.881	-0.67	7.87	-0.00	7.70
104.910	-0.67	7.87	-0.10	7.61
104.940	-0.67	7.87	-0.10	7.61
104.970	-0.69	7.85	-0.10	7.61
105.000	-0.69	7.85	-0.04	7.67
105.029	-0.69	7.85	-0.04	7.67
105.059	-0.70	7.84	-0.04	7.67
105.089	-0.70	7.84	-0.04	7.67
105.119	-0.70	7.84	-0.04	7.67
105.149	-0.71	7.83	-0.04	7.67
105.178	-0.71	7.83	-0.12	7.59
105.208	-0.71	7.83	-0.12	7.59
105.238	-0.71	7.83	-0.12	7.59
105.268	-0.71	7.83	-0.00	7.70
105.297	-0.71	7.83	-0.00	7.70
105.327	-0.71	7.83	-0.00	7.70
105.357	-0.71	7.83	-0.10	7.61
105.387	-0.71	7.83	-0.10	7.61
105.416	-0.83	7.71	-0.10	7.61
105.446	-0.83	7.71	-0.04	7.67
105.476	-0.83	7.71	-0.04	7.67
105.506	-0.80	7.74	-0.04	7.67
105.536	-0.80	7.74	-0.03	7.68
105.565	-0.80	7.74	-0.03	7.68
105.595	-0.85	7.69	-0.03	7.68
105.625	-0.85	7.69	-0.11	7.59
105.655	-0.85	7.69	-0.11	7.59
105.684	-0.99	7.55	-0.11	7.59
105.714	-0.99	7.55	-0.00	7.71
105.744	-0.99	7.55	-0.00	7.71
105.774	-1.10	7.44	-0.00	7.71
105.804	-1.10	7.44	-0.10	7.61
105.833	-1.10	7.44	-0.10	7.61
105.863	-1.19	7.35	-0.10	7.61
105.893	-1.19	7.35	-0.04	7.67
105.923	-1.19	7.35	-0.04	7.67
105.952	-1.23	7.31	-0.04	7.67
105.982	-1.23	7.31	-0.03	7.68
106.012	-1.23	7.31	-0.03	7.68
106.042	-1.25	7.29	-0.03	7.68
106.072	-1.25	7.29	-0.12	7.59
106.101	-1.25	7.29	-0.12	7.59
106.131	-1.26	7.28	-0.12	7.59
106.161	-1.26	7.28	-0.01	7.70
106.191	-1.26	7.28	-0.01	7.70
106.220	-1.28	7.26	-0.01	7.70
106.250	-1.28	7.26	-0.10	7.61
106.280	-1.28	7.26	-0.10	7.61
106.310	-1.29	7.25	-0.10	7.61
106.339	-1.29	7.25	-0.05	7.66
106.369	-1.29	7.25	-0.05	7.66
106.399	-1.29	7.25	-0.05	7.66
106.429	-1.29	7.25	-0.03	7.68
106.459	-1.29	7.25	-0.03	7.68
106.488	-1.29	7.25	-0.03	7.68
106.518	-1.29	7.25	-0.12	7.59
106.548	-1.29	7.25	-0.12	7.59
106.578	-1.29	7.25	-0.12	7.59
106.607	-1.29	7.25	-0.01	7.70
106.637	-1.29	7.25	-0.01	7.70
106.667	-1.30	7.24	-0.01	7.70
106.697	-1.30	7.24	-0.10	7.61
106.727	-1.30	7.24	-0.10	7.61
106.756	-1.30	7.24	-0.10	7.61
106.786	-1.30	7.24	-0.05	7.66
106.816	-1.30	7.24	-0.05	7.66
106.846	-1.29	7.25	-0.05	7.66
106.875	-1.29	7.25	-0.02	7.68
106.905	-1.29	7.25	-0.02	7.68
106.935	-1.29	7.25	-0.02	7.68
106.965	-1.29	7.25	-0.12	7.59
106.994	-1.29	7.25	-0.12	7.59
107.024	-1.29	7.25	-0.12	7.59
107.054	-1.29	7.25	-0.01	7.70
107.084	-1.29	7.25	-0.01	7.70
107.114	-1.29	7.25	-0.01	7.70
107.143	-1.29	7.25	-0.10	7.61
107.173	-1.29	7.25	-0.10	7.61
107.203	-1.29	7.25	-0.10	7.61
107.233	-1.29	7.25	-0.05	7.65
107.262	-1.29	7.25	-0.05	7.65
107.292	-1.29	7.25	-0.05	7.65
107.322	-1.29	7.25	-0.02	7.69
107.352	-1.29	7.25	-0.02	7.69
107.382	-1.29	7.25	-0.02	7.69
107.411	-1.29	7.25	-0.12	7.59
107.441	-1.29	7.25	-0.12	7.59
107.471	-1.29	7.25	-0.12	7.59
107.501	-1.29	7.25	-0.01	7.70
107.530	-1.29	7.25	-0.01	7.70
107.560	-1.29	7.25	-0.01	7.70
107.590	-1.29	7.25	-0.10	7.61
107.620	-1.29	7.25	-0.10	7.61
107.649	-1.29	7.25	-0.10	7.61
107.679	-1.29	7.25	-0.05	7.65
107.709	-1.29	7.25	-0.05	7.65
107.739	-1.29	7.25	-0.05	7.65
107.769	-1.29	7.25	-0.02	7.69
107.798	-1.29	7.25	-0.02	7.69
107.828	-1.28	7.26	-0.02	7.69
107.858	-1.28	7.26	-0.12	7.59
107.888	-1.28	7.26	-0.12	7.59
107.917	-1.28	7.26	-0.12	7.59
107.947	-1.28	7.26	-0.01	7.70
107.977	-1.28	7.26	-0.01	7.70
108.007	-1.28	7.27	-0.01	7.70
108.037	-1.28	7.27	-0.10	7.61
108.066	-1.28	7.27	-0.10	7.61
108.096	-1.27	7.27	-0.10	7.61
108.126	-1.27	7.27	-0.06	7.65
108.156	-1.27	7.27	-0.06	7.65
108.185	-1.27	7.27	-0.06	7.65
108.215	-1.27	7.27	-0.02	7.69
