Tempo(s)    P0(KPa) P0+Coluna(KPa)  P1(KPa) P1+Coluna(KPa)
0.003	-2.22	-2.22	-2.22	-2.22
0.030	-2.22	-2.22	-2.22	-2.22
0.060	8.22	8.22	-2.22	-2.22
0.090	8.22	8.22	7.62	7.62
0.120	8.22	8.22	7.62	7.62
0.149	8.19	8.19	7.62	7.62
0.179	8.19	8.19	7.69	7.69
0.209	8.19	8.19	7.69	7.69
0.239	8.79	8.79	7.69	7.69
0.269	8.79	8.79	7.62	7.62
0.298	8.79	8.79	7.62	7.62
0.328	8.59	8.59	7.62	7.62
0.358	8.59	8.59	7.59	7.59
0.388	8.59	8.59	7.59	7.59
0.418	8.60	8.60	7.59	7.59
0.447	8.60	8.60	7.69	7.69
0.477	8.60	8.60	7.69	7.69
0.507	8.53	8.53	7.69	7.69
0.537	8.53	8.53	7.58	7.58
0.566	8.53	8.53	7.58	7.58
0.596	8.55	8.55	7.58	7.58
0.626	0.00	8.55	0.09	7.67
0.656	0.00	8.55	0.09	7.67
0.685	0.02	8.58	0.09	7.67
0.715	0.02	8.58	0.04	7.63
0.745	0.02	8.58	0.04	7.63
0.775	0.07	8.63	0.04	7.63
0.804	0.07	8.63	0.01	7.59
0.834	0.07	8.63	0.01	7.59
0.864	0.09	8.65	0.01	7.59
0.894	0.09	8.65	0.10	7.68
0.924	0.09	8.65	0.10	7.68
0.953	0.03	8.58	0.10	7.68
0.983	0.03	8.58	0.00	7.59
1.013	0.03	8.58	0.00	7.59
1.043	0.01	8.57	0.00	7.59
1.072	0.01	8.57	0.08	7.67
1.102	0.01	8.57	0.08	7.67
1.132	-0.01	8.54	0.08	7.67
1.162	-0.01	8.54	0.05	7.63
1.192	-0.01	8.54	0.05	7.63
1.221	-0.04	8.52	0.05	7.63
1.251	-0.04	8.52	0.00	7.59
1.281	-0.04	8.52	0.00	7.59
1.311	0.06	8.61	0.00	7.59
1.341	0.06	8.61	0.10	7.69
1.370	0.06	8.61	0.10	7.69
1.400	0.02	8.58	0.10	7.69
1.430	0.02	8.58	0.00	7.58
1.460	0.02	8.58	0.00	7.58
1.489	0.02	8.58	0.00	7.58
1.519	0.02	8.58	0.09	7.67
1.549	0.02	8.58	0.09	7.67
1.579	0.09	8.65	0.09	7.67
1.609	0.09	8.65	0.05	7.63
1.638	0.09	8.65	0.05	7.63
1.668	0.15	8.71	0.05	7.63
1.698	0.15	8.71	0.00	7.59
1.728	0.15	8.71	0.00	7.59
1.758	0.23	8.78	0.00	7.59
1.787	0.23	8.78	0.10	7.69
1.817	0.23	8.78	0.10	7.69
1.847	0.20	8.75	0.10	7.69
1.877	0.20	8.75	0.00	7.58
1.906	0.20	8.75	0.00	7.58
1.936	0.23	8.78	0.00	7.58
1.966	0.23	8.78	0.08	7.67
1.996	0.23	8.78	0.08	7.67
2.026	0.21	8.76	0.08	7.67
2.055	0.21	8.76	0.05	7.64
2.085	0.21	8.76	0.05	7.64
2.115	0.07	8.63	0.05	7.64
2.145	0.07	8.63	0.00	7.58
2.175	0.07	8.63	0.00	7.58
2.204	0.17	8.72	0.00	7.58
2.234	0.17	8.72	0.10	7.68
2.264	0.17	8.72	0.10	7.68
2.294	0.11	8.67	0.10	7.68
2.323	0.11	8.67	0.01	7.59
2.353	0.11	8.67	0.01	7.59
2.383	0.14	8.69	0.01	7.59
2.413	0.14	8.69	0.08	7.67
2.443	0.14	8.69	0.08	7.67
2.472	0.14	8.70	0.08	7.67
2.502	0.14	8.70	0.06	7.64
2.532	0.14	8.70	0.06	7.64
2.562	0.09	8.64	0.06	7.64
2.592	0.09	8.64	0.00	7.58
2.621	0.09	8.64	0.00	7.58
2.651	0.16	8.72	0.00	7.58
2.681	0.16	8.72	0.11	7.69
2.711	0.16	8.72	0.11	7.69
2.740	0.11	8.66	0.11	7.69
2.770	0.11	8.66	0.00	7.59
2.800	0.11	8.66	0.00	7.59
2.830	0.10	8.65	0.00	7.59
2.860	0.10	8.65	0.08	7.66
2.889	0.10	8.65	0.08	7.66
2.919	0.49	9.05	0.08	7.66
2.949	0.49	9.05	0.06	7.64
2.979	0.49	9.05	0.06	7.64
3.008	10.31	18.86	0.06	7.64
3.038	10.31	18.86	0.00	7.58
3.068	10.31	18.86	0.00	7.58
3.098	19.55	28.10	0.00	7.58
3.128	19.55	28.10	0.11	7.69
3.157	19.55	28.10	0.11	7.69
3.187	18.49	27.04	0.11	7.69
3.217	18.49	27.04	0.01	7.59
3.247	18.49	27.04	0.01	7.59
3.276	17.26	25.81	0.01	7.59
3.306	17.26	25.81	0.08	7.66
3.336	17.26	25.81	0.08	7.66
3.366	17.39	25.95	0.08	7.66
3.395	17.39	25.95	0.06	7.64
3.425	17.39	25.95	0.06	7.64
3.455	17.39	25.94	0.06	7.64
3.485	17.39	25.94	0.00	7.58
3.515	17.39	25.94	0.00	7.58
3.544	17.46	26.02	0.00	7.58
3.574	17.46	26.02	0.11	7.69
3.604	17.46	26.02	0.11	7.69
3.634	17.23	25.79	0.11	7.69
3.663	17.23	25.79	0.01	7.60
3.693	17.23	25.79	0.01	7.60
3.723	16.88	25.43	0.01	7.60
3.753	16.88	25.43	0.08	7.66
3.782	16.88	25.43	0.08	7.66
3.812	17.06	25.62	0.08	7.66
3.842	17.06	25.62	0.07	7.65
3.872	17.06	25.62	0.07	7.65
3.901	17.19	25.75	0.07	7.65
3.931	17.19	25.75	0.00	7.59
3.961	17.19	25.75	0.00	7.59
3.991	17.46	26.01	0.00	7.59
4.020	17.46	26.01	0.11	7.69
4.050	17.46	26.01	0.11	7.69
4.080	17.57	26.13	0.11	7.69
4.110	17.57	26.13	0.01	7.59
4.139	17.57	26.13	0.01	7.59
4.169	17.54	26.09	0.01	7.59
4.199	17.54	26.09	0.08	7.66
4.229	17.54	26.09	0.08	7.66
4.259	17.60	26.16	0.08	7.66
4.288	17.60	26.16	0.08	7.66
4.318	17.60	26.16	0.08	7.66
4.348	17.86	26.42	0.08	7.66
4.378	17.86	26.42	0.00	7.58
4.407	17.86	26.42	0.00	7.58
4.437	18.00	26.55	0.00	7.58
4.467	18.00	26.55	0.11	7.69
4.497	18.00	26.55	0.11	7.69
4.527	18.19	26.74	0.11	7.69
4.556	18.19	26.74	0.01	7.59
4.586	18.19	26.74	0.01	7.59
4.616	18.25	26.80	0.01	7.59
4.646	18.25	26.80	0.08	7.66
4.675	18.25	26.80	0.08	7.66
4.705	18.45	27.00	0.08	7.66
4.735	18.45	27.00	0.07	7.65
4.765	18.45	27.00	0.07	7.65
4.794	18.33	26.89	0.07	7.65
4.824	18.33	26.89	0.00	7.59
4.854	18.33	26.89	0.00	7.59
4.884	18.52	27.07	0.00	7.59
4.914	18.52	27.07	0.11	7.69
4.943	18.52	27.07	0.11	7.69
4.973	18.47	27.02	0.11	7.69
5.003	18.47	27.02	0.01	7.59
5.033	18.47	27.02	0.01	7.59
5.062	18.44	26.99	0.01	7.59
5.092	18.44	26.99	0.08	7.66
5.122	18.44	26.99	0.08	7.66
5.152	18.39	26.95	0.08	7.66
5.181	18.39	26.95	0.08	7.66
5.211	18.39	26.95	0.08	7.66
5.241	18.43	26.99	0.08	7.66
5.271	18.43	26.99	0.00	7.58
5.301	18.43	26.99	0.00	7.58
5.330	18.37	26.92	0.00	7.58
5.360	18.37	26.92	0.11	7.69
5.390	18.37	26.92	0.11	7.69
5.420	18.44	26.99	0.11	7.69
5.449	18.44	26.99	0.01	7.60
5.479	18.44	26.99	0.01	7.60
5.509	18.71	27.26	0.01	7.60
5.539	18.71	27.26	0.08	7.66
5.568	18.71	27.26	0.08	7.66
5.598	18.93	27.48	0.08	7.66
5.628	18.93	27.48	0.08	7.66
5.658	18.93	27.48	0.08	7.66
5.687	18.94	27.49	0.08	7.66
5.717	18.94	27.49	0.00	7.58
5.747	18.94	27.49	0.00	7.58
5.777	19.06	27.62	0.00	7.58
5.806	19.06	27.62	0.11	7.69
5.836	19.06	27.62	0.11	7.69
5.866	19.02	27.58	0.11	7.69
5.896	19.02	27.58	0.02	7.60
5.926	19.02	27.58	0.02	7.60
5.955	19.06	27.62	0.02	7.60
5.985	19.06	27.62	0.07	7.65
6.015	19.06	27.62	0.07	7.65
6.045	19.09	27.65	0.07	7.65
6.074	19.09	27.65	0.09	7.67
6.104	19.09	27.65	0.09	7.67
6.134	19.03	27.58	0.09	7.67
6.164	19.03	27.58	-0.00	7.58
6.193	19.03	27.58	-0.00	7.58
6.223	18.89	27.44	-0.00	7.58
6.253	18.89	27.44	0.11	7.69
6.283	18.89	27.44	0.11	7.69
6.313	18.88	27.44	0.11	7.69
6.342	18.88	27.44	0.02	7.60
6.372	18.88	27.44	0.02	7.60
6.402	18.83	27.39	0.02	7.60
6.432	18.83	27.39	0.07	7.65
6.461	18.83	27.39	0.07	7.65
6.491	18.74	27.30	0.07	7.65
6.521	18.74	27.30	0.09	7.67
6.551	18.74	27.30	0.09	7.67
6.580	18.60	27.16	0.09	7.67
6.610	18.60	27.16	-0.00	7.58
6.640	18.60	27.16	-0.00	7.58
6.670	18.51	27.06	-0.00	7.58
6.700	18.51	27.06	0.11	7.69
6.729	18.51	27.06	0.11	7.69
6.759	18.43	26.98	0.11	7.69
6.789	18.43	26.98	0.01	7.60
6.819	18.43	26.98	0.01	7.60
6.848	18.35	26.90	0.01	7.60
6.878	18.35	26.90	0.07	7.65
6.908	18.35	26.90	0.07	7.65
6.938	18.32	26.87	0.07	7.65
6.968	18.32	26.87	0.09	7.68
6.997	18.32	26.87	0.09	7.68
7.027	18.40	26.96	0.09	7.68
7.057	18.40	26.96	-0.00	7.58
7.087	18.40	26.96	-0.00	7.58
7.116	18.49	27.04	-0.00	7.58
7.146	18.49	27.04	0.11	7.69
7.176	18.49	27.04	0.11	7.69
7.206	18.49	27.05	0.11	7.69
7.235	18.49	27.05	0.02	7.60
7.265	18.49	27.05	0.02	7.60
7.295	18.49	27.05	0.02	7.60
7.325	18.49	27.05	0.06	7.64
7.355	18.49	27.05	0.06	7.64
7.384	18.43	26.98	0.06	7.64
7.414	18.43	26.98	0.10	7.68
7.444	18.43	26.98	0.10	7.68
7.474	18.49	27.04	0.10	7.68
7.503	18.49	27.04	0.00	7.58
7.533	18.49	27.04	0.00	7.58
7.563	18.37	26.93	0.00	7.58
7.593	18.37	26.93	0.11	7.69
7.622	18.37	26.93	0.11	7.69
7.652	18.44	26.99	0.11	7.69
7.682	18.44	26.99	0.02	7.60
7.712	18.44	26.99	0.02	7.60
7.741	18.41	26.96	0.02	7.60
7.771	18.41	26.96	0.06	7.64
7.801	18.41	26.96	0.06	7.64
7.831	18.38	26.94	0.06	7.64
7.861	18.38	26.94	0.10	7.68
7.890	18.38	26.94	0.10	7.68
7.920	18.41	26.97	0.10	7.68
7.950	18.41	26.97	-0.00	7.58
7.980	18.41	26.97	-0.00	7.58
8.009	18.33	26.89	-0.00	7.58
8.039	18.33	26.89	0.10	7.68
8.069	18.33	26.89	0.10	7.68
8.099	18.25	26.80	0.10	7.68
8.128	18.25	26.80	0.02	7.60
8.158	18.25	26.80	0.02	7.60
8.188	18.18	26.73	0.02	7.60
8.218	18.18	26.73	0.06	7.64
8.248	18.18	26.73	0.06	7.64
8.277	18.18	26.74	0.06	7.64
8.307	18.18	26.74	0.10	7.68
8.337	18.18	26.74	0.10	7.68
8.367	18.34	26.90	0.10	7.68
8.396	18.34	26.90	0.00	7.58
8.426	18.34	26.90	0.00	7.58
8.456	18.29	26.85	0.00	7.58
8.486	18.29	26.85	0.10	7.68
8.516	18.29	26.85	0.10	7.68
8.545	18.38	26.93	0.10	7.68
8.575	18.38	26.93	0.02	7.60
8.605	18.38	26.93	0.02	7.60
8.635	18.49	27.04	0.02	7.60
8.664	18.49	27.04	0.05	7.63
8.694	18.49	27.04	0.05	7.63
8.724	18.44	27.00	0.05	7.63
8.754	18.44	27.00	0.11	7.69
8.783	18.44	27.00	0.11	7.69
8.813	18.52	27.07	0.11	7.69
8.843	18.52	27.07	0.00	7.58
8.873	18.52	27.07	0.00	7.58
8.903	18.52	27.08	0.00	7.58
8.932	18.52	27.08	0.10	7.68
8.962	18.52	27.08	0.10	7.68
8.992	18.50	27.05	0.10	7.68
9.022	18.50	27.05	0.02	7.60
9.051	18.50	27.05	0.02	7.60
9.081	18.47	27.03	0.02	7.60
9.111	18.47	27.03	0.04	7.62
9.141	18.47	27.03	0.04	7.62
9.170	18.55	27.10	0.04	7.62
9.200	18.55	27.10	0.11	7.69
9.230	18.55	27.10	0.11	7.69
9.260	18.58	27.14	0.11	7.69
9.290	18.58	27.14	0.00	7.58
9.319	18.58	27.14	0.00	7.58
9.349	18.67	27.22	0.00	7.58
9.379	18.67	27.22	0.10	7.69
9.409	18.67	27.22	0.10	7.69
9.438	18.60	27.15	0.10	7.69
9.468	18.60	27.15	0.03	7.61
9.498	18.60	27.15	0.03	7.61
9.528	18.69	27.24	0.03	7.61
9.557	18.69	27.24	0.04	7.62
9.587	18.69	27.24	0.04	7.62
9.617	18.70	27.25	0.04	7.62
9.647	18.70	27.25	0.11	7.69
9.677	18.70	27.25	0.11	7.69
9.706	18.70	27.25	0.11	7.69
9.736	18.70	27.25	-0.00	7.58
9.766	18.70	27.25	-0.00	7.58
9.796	18.72	27.28	-0.00	7.58
9.825	18.72	27.28	0.10	7.68
9.855	18.72	27.28	0.10	7.68
9.885	18.81	27.36	0.10	7.68
9.915	18.81	27.36	0.03	7.61
9.945	18.81	27.36	0.03	7.61
9.974	18.66	27.22	0.03	7.61
10.004	18.66	27.22	0.04	7.62
10.034	18.66	27.22	0.04	7.62
10.064	18.67	27.23	0.04	7.62
10.093	18.67	27.23	0.11	7.69
10.123	18.67	27.23	0.11	7.69
10.153	18.60	27.15	0.11	7.69
10.183	18.60	27.15	-0.00	7.58
10.212	18.60	27.15	-0.00	7.58
10.242	18.57	27.13	-0.00	7.58
10.272	18.57	27.13	0.10	7.68
10.302	18.57	27.13	0.10	7.68
10.331	18.61	27.17	0.10	7.68
10.361	18.61	27.17	0.03	7.61
10.391	18.61	27.17	0.03	7.61
10.421	18.61	27.17	0.03	7.61
10.451	18.61	27.17	0.03	7.62
10.480	18.61	27.17	0.03	7.62
10.510	18.53	27.08	0.03	7.62
10.540	18.53	27.08	0.11	7.69
10.570	18.53	27.08	0.11	7.69
10.599	18.57	27.13	0.11	7.69
10.629	18.57	27.13	-0.00	7.58
10.659	18.57	27.13	-0.00	7.58
10.689	18.56	27.11	-0.00	7.58
10.718	18.56	27.11	0.09	7.68
10.748	18.56	27.11	0.09	7.68
10.778	18.51	27.06	0.09	7.68
10.808	18.51	27.06	0.03	7.61
10.837	18.51	27.06	0.03	7.61
10.867	18.50	27.06	0.03	7.61
10.897	18.50	27.06	0.03	7.61
10.927	18.50	27.06	0.03	7.61
10.957	18.48	27.04	0.03	7.61
10.986	18.48	27.04	0.11	7.69
11.016	18.48	27.04	0.11	7.69
11.046	18.46	27.02	0.11	7.69
11.076	18.46	27.02	0.00	7.58
11.105	18.46	27.02	0.00	7.58
11.135	18.48	27.04	0.00	7.58
11.165	18.48	27.04	0.09	7.67
11.194	18.48	27.04	0.09	7.67
11.224	18.43	26.98	0.09	7.67
11.254	18.43	26.98	0.04	7.62
11.284	18.43	26.98	0.04	7.62
11.314	18.44	27.00	0.04	7.62
11.343	18.44	27.00	0.02	7.60
11.373	18.44	27.00	0.02	7.60
11.403	18.41	26.97	0.02	7.60
11.433	18.41	26.97	0.11	7.69
11.462	18.41	26.97	0.11	7.69
11.492	18.47	27.03	0.11	7.69
11.522	18.47	27.03	-0.00	7.58
11.552	18.47	27.03	-0.00	7.58
11.581	18.49	27.04	-0.00	7.58
11.611	18.49	27.04	0.09	7.67
11.641	18.49	27.04	0.09	7.67
11.671	18.39	26.95	0.09	7.67
11.700	18.39	26.95	0.04	7.62
11.730	18.39	26.95	0.04	7.62
11.760	18.43	26.98	0.04	7.62
11.790	18.43	26.98	0.02	7.60
11.820	18.43	26.98	0.02	7.60
11.849	18.48	27.04	0.02	7.60
11.879	18.48	27.04	0.11	7.69
11.909	18.48	27.04	0.11	7.69
11.939	18.52	27.07	0.11	7.69
11.968	18.52	27.07	0.00	7.58
11.998	18.52	27.07	0.00	7.58
12.028	18.58	27.14	0.00	7.58
12.058	18.58	27.14	0.09	7.67
12.087	18.58	27.14	0.09	7.67
12.117	18.52	27.08	0.09	7.67
12.147	18.52	27.08	0.04	7.62
12.177	18.52	27.08	0.04	7.62
12.206	18.50	27.05	0.04	7.62
12.236	18.50	27.05	0.01	7.59
12.266	18.50	27.05	0.01	7.59
12.296	18.54	27.09	0.01	7.59
12.326	18.54	27.09	0.11	7.69
12.355	18.54	27.09	0.11	7.69
12.385	18.53	27.09	0.11	7.69
12.415	18.53	27.09	0.00	7.58
12.445	18.53	27.09	0.00	7.58
12.474	18.50	27.06	0.00	7.58
12.504	18.50	27.06	0.09	7.67
12.534	18.50	27.06	0.09	7.67
12.564	18.45	27.00	0.09	7.67
12.593	18.45	27.00	0.04	7.63
12.623	18.45	27.00	0.04	7.63
12.653	18.41	26.97	0.04	7.63
12.683	18.41	26.97	0.01	7.59
12.712	18.41	26.97	0.01	7.59
12.742	18.46	27.01	0.01	7.59
12.772	18.46	27.01	0.11	7.69
12.802	18.46	27.01	0.11	7.69
12.831	18.46	27.02	0.11	7.69
12.861	18.46	27.02	0.01	7.59
12.891	18.46	27.02	0.01	7.59
12.921	18.48	27.03	0.01	7.59
12.950	18.48	27.03	0.09	7.67
12.980	18.48	27.03	0.09	7.67
13.010	18.50	27.05	0.09	7.67
13.040	18.50	27.05	0.05	7.63
13.069	18.50	27.05	0.05	7.63
13.099	18.50	27.05	0.05	7.63
13.129	18.50	27.05	0.00	7.59
13.159	18.50	27.05	0.00	7.59
13.189	18.47	27.02	0.00	7.59
13.218	18.47	27.02	0.11	7.69
13.248	18.47	27.02	0.11	7.69
13.278	18.48	27.04	0.11	7.69
13.308	18.48	27.04	0.01	7.59
13.337	18.48	27.04	0.01	7.59
13.367	18.47	27.02	0.01	7.59
13.397	18.47	27.02	0.08	7.67
13.427	18.47	27.02	0.08	7.67
13.456	18.46	27.02	0.08	7.67
13.486	18.46	27.02	0.06	7.64
13.516	18.46	27.02	0.06	7.64
13.546	18.46	27.02	0.06	7.64
13.576	18.46	27.02	0.00	7.59
13.605	18.46	27.02	0.00	7.59
13.635	18.48	27.04	0.00	7.59
13.665	18.48	27.04	0.11	7.69
13.695	18.48	27.04	0.11	7.69
13.724	18.49	27.04	0.11	7.69
13.754	18.49	27.04	0.01	7.59
13.784	18.49	27.04	0.01	7.59
13.814	18.49	27.04	0.01	7.59
13.843	18.49	27.04	0.09	7.67
13.873	18.49	27.04	0.09	7.67
13.903	18.46	27.01	0.09	7.67
13.933	18.46	27.01	0.06	7.64
13.962	18.46	27.01	0.06	7.64
13.992	18.41	26.97	0.06	7.64
14.022	18.41	26.97	0.00	7.58
14.052	18.41	26.97	0.00	7.58
14.081	18.42	26.97	0.00	7.58
14.111	18.42	26.97	0.11	7.69
14.141	18.42	26.97	0.11	7.69
14.171	18.48	27.03	0.11	7.69
14.200	18.48	27.03	0.01	7.59
14.230	18.48	27.03	0.01	7.59
14.260	18.39	26.94	0.01	7.59
14.290	18.39	26.94	0.08	7.66
14.319	18.39	26.94	0.08	7.66
14.349	18.46	27.02	0.08	7.66
14.379	18.46	27.02	0.06	7.65
14.409	18.46	27.02	0.06	7.65
14.439	18.47	27.02	0.06	7.65
14.468	18.47	27.02	0.00	7.59
14.498	18.47	27.02	0.00	7.59
14.528	18.50	27.06	0.00	7.59
14.558	18.50	27.06	0.11	7.69
14.587	18.50	27.06	0.11	7.69
14.617	18.45	27.01	0.11	7.69
14.647	18.45	27.01	0.01	7.59
14.677	18.45	27.01	0.01	7.59
14.706	18.47	27.02	0.01	7.59
14.736	18.47	27.02	0.08	7.66
14.766	18.47	27.02	0.08	7.66
14.796	18.38	26.94	0.08	7.66
14.825	18.38	26.94	0.07	7.65
14.855	18.38	26.94	0.07	7.65
14.885	18.34	26.90	0.07	7.65
14.915	18.34	26.90	0.00	7.59
14.944	18.34	26.90	0.00	7.59
14.974	18.41	26.96	0.00	7.59
15.004	18.41	26.96	0.11	7.69
15.034	18.41	26.96	0.11	7.69
15.064	18.47	27.02	0.11	7.69
15.093	18.47	27.02	0.01	7.59
15.123	18.47	27.02	0.01	7.59
15.153	18.43	26.98	0.01	7.59
15.183	18.43	26.98	0.08	7.66
15.212	18.43	26.98	0.08	7.66
15.242	18.32	26.88	0.08	7.66
15.272	18.32	26.88	0.07	7.65
15.302	18.32	26.88	0.07	7.65
15.331	18.31	26.87	0.07	7.65
15.361	18.31	26.87	0.00	7.58
15.391	18.31	26.87	0.00	7.58
15.421	18.30	26.86	0.00	7.58
15.450	18.30	26.86	0.11	7.69
15.480	18.30	26.86	0.11	7.69
15.510	18.27	26.82	0.11	7.69
15.540	18.27	26.82	0.01	7.60
15.570	18.27	26.82	0.01	7.60
15.599	18.33	26.89	0.01	7.60
15.629	18.33	26.89	0.08	7.66
15.659	18.33	26.89	0.08	7.66
15.689	18.32	26.88	0.08	7.66
15.718	18.32	26.88	0.08	7.66
15.748	18.32	26.88	0.08	7.66
15.778	18.32	26.88	0.08	7.66
15.808	18.32	26.88	0.00	7.58
15.837	18.32	26.88	0.00	7.58
15.867	18.31	26.87	0.00	7.58
15.897	18.31	26.87	0.11	7.69
15.927	18.31	26.87	0.11	7.69
15.956	18.27	26.82	0.11	7.69
15.986	18.27	26.82	0.01	7.60
16.016	18.27	26.82	0.01	7.60
16.046	18.28	26.83	0.01	7.60
16.075	18.28	26.83	0.08	7.66
16.105	18.28	26.83	0.08	7.66
16.135	18.28	26.84	0.08	7.66
16.165	18.28	26.84	0.08	7.66
16.194	18.28	26.84	0.08	7.66
16.224	18.29	26.84	0.08	7.66
16.254	18.29	26.84	0.00	7.58
16.284	18.29	26.84	0.00	7.58
16.313	18.33	26.89	0.00	7.58
16.343	18.33	26.89	0.11	7.69
16.373	18.33	26.89	0.11	7.69
16.403	18.29	26.84	0.11	7.69
16.432	18.29	26.84	0.02	7.60
16.462	18.29	26.84	0.02	7.60
16.492	18.31	26.87	0.02	7.60
16.522	18.31	26.87	0.07	7.65
16.551	18.31	26.87	0.07	7.65
16.581	18.28	26.83	0.07	7.65
16.611	18.28	26.83	0.08	7.67
16.641	18.28	26.83	0.08	7.67
16.671	18.21	26.77	0.08	7.67
16.700	18.21	26.77	0.00	7.58
16.730	18.21	26.77	0.00	7.58
16.760	18.33	26.88	0.00	7.58
16.790	18.33	26.88	0.11	7.69
16.819	18.33	26.88	0.11	7.69
16.849	18.28	26.83	0.11	7.69
16.879	18.28	26.83	0.02	7.60
16.909	18.28	26.83	0.02	7.60
16.938	18.30	26.86	0.02	7.60
16.968	18.30	26.86	0.07	7.65
16.998	18.30	26.86	0.07	7.65
17.028	18.30	26.85	0.07	7.65
17.057	18.30	26.85	0.09	7.67
17.087	18.30	26.85	0.09	7.67
17.117	18.28	26.84	0.09	7.67
17.147	18.28	26.84	-0.00	7.58
17.176	18.28	26.84	-0.00	7.58
17.206	18.28	26.83	-0.00	7.58
17.236	18.28	26.83	0.11	7.69
17.266	18.28	26.83	0.11	7.69
17.296	18.21	26.76	0.11	7.69
17.325	18.21	26.76	0.02	7.60
17.355	18.21	26.76	0.02	7.60
17.385	18.22	26.78	0.02	7.60
17.415	18.22	26.78	0.07	7.65
17.444	18.22	26.78	0.07	7.65
17.474	18.17	26.73	0.07	7.65
17.504	18.17	26.73	0.09	7.67
17.534	18.17	26.73	0.09	7.67
17.563	18.23	26.78	0.09	7.67
17.593	18.23	26.78	-0.00	7.58
17.623	18.23	26.78	-0.00	7.58
17.653	18.11	26.66	-0.00	7.58
17.682	18.11	26.66	0.10	7.69
17.712	18.11	26.66	0.10	7.69
17.742	18.13	26.69	0.10	7.69
17.772	18.13	26.69	0.02	7.60
17.801	18.13	26.69	0.02	7.60
17.831	18.06	26.62	0.02	7.60
17.861	18.06	26.62	0.06	7.65
17.891	18.06	26.62	0.06	7.65
17.921	17.98	26.54	0.06	7.65
17.950	17.98	26.54	0.10	7.68
17.980	17.98	26.54	0.10	7.68
18.010	17.97	26.52	0.10	7.68
18.040	17.97	26.52	0.00	7.58
18.069	17.97	26.52	0.00	7.58
18.099	17.93	26.48	0.00	7.58
18.129	17.93	26.48	0.11	7.69
18.158	17.93	26.48	0.11	7.69
18.188	17.96	26.51	0.11	7.69
18.218	17.96	26.51	0.02	7.60
18.248	17.96	26.51	0.02	7.60
18.278	17.94	26.50	0.02	7.60
18.307	17.94	26.50	0.06	7.64
18.337	17.94	26.50	0.06	7.64
18.367	17.86	26.42	0.06	7.64
18.397	17.86	26.42	0.10	7.69
18.426	17.86	26.42	0.10	7.69
18.456	17.83	26.39	0.10	7.69
18.486	17.83	26.39	-0.00	7.58
18.516	17.83	26.39	-0.00	7.58
18.545	17.89	26.44	-0.00	7.58
18.575	17.89	26.44	0.10	7.68
18.605	17.89	26.44	0.10	7.68
18.635	17.95	26.50	0.10	7.68
18.664	17.95	26.50	0.02	7.60
18.694	17.95	26.50	0.02	7.60
18.724	18.02	26.58	0.02	7.60
18.754	18.02	26.58	0.05	7.64
18.784	18.02	26.58	0.05	7.64
18.813	17.90	26.46	0.05	7.64
18.843	17.90	26.46	0.10	7.68
18.873	17.90	26.46	0.10	7.68
18.903	17.98	26.54	0.10	7.68
18.932	17.98	26.54	0.00	7.58
18.962	17.98	26.54	0.00	7.58
18.992	17.89	26.44	0.00	7.58
19.022	17.89	26.44	0.10	7.68
19.051	17.89	26.44	0.10	7.68
19.081	17.90	26.45	0.10	7.68
19.111	17.90	26.45	0.02	7.60
19.141	17.90	26.45	0.02	7.60
19.170	17.84	26.39	0.02	7.60
19.200	17.84	26.39	0.05	7.63
19.230	17.84	26.39	0.05	7.63
19.260	17.80	26.35	0.05	7.63
19.289	17.80	26.35	0.11	7.69
19.319	17.80	26.35	0.11	7.69
19.349	17.86	26.42	0.11	7.69
19.379	17.86	26.42	0.00	7.58
19.408	17.86	26.42	0.00	7.58
19.438	17.82	26.37	0.00	7.58
19.468	17.82	26.37	0.10	7.68
19.498	17.82	26.37	0.10	7.68
19.527	17.84	26.40	0.10	7.68
19.557	17.84	26.40	0.02	7.60
19.587	17.84	26.40	0.02	7.60
19.617	17.71	26.27	0.02	7.60
19.646	17.71	26.27	0.04	7.63
19.676	17.71	26.27	0.04	7.63
19.706	17.69	26.24	0.04	7.63
19.736	17.69	26.24	0.11	7.69
19.765	17.69	26.24	0.11	7.69
19.795	17.76	26.32	0.11	7.69
19.825	17.76	26.32	0.00	7.58
19.855	17.76	26.32	0.00	7.58
19.884	17.74	26.29	0.00	7.58
19.914	17.74	26.29	0.10	7.68
19.944	17.74	26.29	0.10	7.68
19.974	17.66	26.22	0.10	7.68
20.003	17.66	26.22	0.03	7.61
20.033	17.66	26.22	0.03	7.61
20.063	17.59	26.14	0.03	7.61
20.093	17.59	26.14	0.04	7.62
20.122	17.59	26.14	0.04	7.62
20.152	17.75	26.31	0.04	7.62
20.182	17.75	26.31	0.10	7.69
20.212	17.75	26.31	0.10	7.69
20.242	17.47	26.02	0.10	7.69
20.271	17.47	26.02	-0.00	7.58
20.301	17.47	26.02	-0.00	7.58
20.331	17.44	25.99	-0.00	7.58
20.361	17.44	25.99	0.10	7.68
20.390	17.44	25.99	0.10	7.68
20.420	17.46	26.01	0.10	7.68
20.450	17.46	26.01	0.03	7.61
20.480	17.46	26.01	0.03	7.61
20.509	17.41	25.97	0.03	7.61
20.539	17.41	25.97	0.04	7.62
20.569	17.41	25.97	0.04	7.62
20.599	17.34	25.89	0.04	7.62
20.628	17.34	25.89	0.11	7.69
20.658	17.34	25.89	0.11	7.69
20.688	17.32	25.87	0.11	7.69
20.718	17.32	25.87	-0.00	7.58
20.748	17.32	25.87	-0.00	7.58
20.777	17.28	25.83	-0.00	7.58
20.807	17.28	25.83	0.09	7.68
20.837	17.28	25.83	0.09	7.68
20.867	17.30	25.85	0.09	7.68
20.896	17.30	25.85	0.03	7.61
20.926	17.30	25.85	0.03	7.61
20.956	17.25	25.80	0.03	7.61
20.986	17.25	25.80	0.03	7.61
21.015	17.25	25.80	0.03	7.61
21.045	17.25	25.80	0.03	7.61
21.075	17.25	25.80	0.10	7.69
21.105	17.25	25.80	0.10	7.69
21.134	16.99	25.54	0.10	7.69
21.164	16.99	25.54	0.00	7.58
21.194	16.99	25.54	0.00	7.58
21.224	17.05	25.61	0.00	7.58
21.253	17.05	25.61	0.09	7.67
21.283	17.05	25.61	0.09	7.67
21.313	17.31	25.87	0.09	7.67
21.343	17.31	25.87	0.04	7.62
21.373	17.31	25.87	0.04	7.62
21.402	17.19	25.75	0.04	7.62
21.432	17.19	25.75	0.03	7.61
21.462	17.19	25.75	0.03	7.61
21.492	17.25	25.81	0.03	7.61
21.521	17.25	25.81	0.11	7.69
21.551	17.25	25.81	0.11	7.69
21.581	17.27	25.82	0.11	7.69
21.611	17.27	25.82	0.00	7.58
21.640	17.27	25.82	0.00	7.58
21.670	17.24	25.79	0.00	7.58
21.700	17.24	25.79	0.09	7.67
21.730	17.24	25.79	0.09	7.67
21.759	17.23	25.79	0.09	7.67
21.789	17.23	25.79	0.03	7.62
21.819	17.23	25.79	0.03	7.62
21.849	17.20	25.75	0.03	7.62
21.879	17.20	25.75	0.02	7.60
21.908	17.20	25.75	0.02	7.60
21.938	17.30	25.86	0.02	7.60
21.968	17.30	25.86	0.10	7.69
21.998	17.30	25.86	0.10	7.69
22.027	17.21	25.77	0.10	7.69
22.057	17.21	25.77	-0.00	7.58
22.087	17.21	25.77	-0.00	7.58
22.117	17.16	25.72	-0.00	7.58
22.146	17.16	25.72	0.09	7.67
22.176	17.16	25.72	0.09	7.67
22.206	17.25	25.81	0.09	7.67
22.236	17.25	25.81	0.04	7.62
22.265	17.25	25.81	0.04	7.62
22.295	17.27	25.82	0.04	7.62
22.325	17.27	25.82	0.01	7.60
22.355	17.27	25.82	0.01	7.60
22.385	17.24	25.79	0.01	7.60
22.414	17.24	25.79	0.11	7.69
22.444	17.24	25.79	0.11	7.69
22.474	17.21	25.77	0.11	7.69
22.504	17.21	25.77	0.00	7.58
22.533	17.21	25.77	0.00	7.58
22.563	17.13	25.68	0.00	7.58
22.593	17.13	25.68	0.09	7.67
22.623	17.13	25.68	0.09	7.67
22.652	17.09	25.64	0.09	7.67
22.682	17.09	25.64	0.04	7.62
22.712	17.09	25.64	0.04	7.62
22.742	17.01	25.57	0.04	7.62
22.771	17.01	25.57	0.01	7.59
22.801	17.01	25.57	0.01	7.59
22.831	17.04	25.59	0.01	7.59
22.861	17.04	25.59	0.11	7.69
22.890	17.04	25.59	0.11	7.69
22.920	17.16	25.72	0.11	7.69
22.950	17.16	25.72	0.01	7.59
22.980	17.16	25.72	0.01	7.59
23.010	17.22	25.77	0.01	7.59
23.039	17.22	25.77	0.09	7.67
23.069	17.22	25.77	0.09	7.67
23.099	17.21	25.76	0.09	7.67
23.129	17.21	25.76	0.05	7.63
23.158	17.21	25.76	0.05	7.63
23.188	17.23	25.78	0.05	7.63
23.218	17.23	25.78	0.01	7.59
23.248	17.23	25.78	0.01	7.59
23.277	17.14	25.70	0.01	7.59
23.307	17.14	25.70	0.11	7.69
23.337	17.14	25.70	0.11	7.69
23.367	17.15	25.70	0.11	7.69
23.396	17.15	25.70	0.00	7.59
23.426	17.15	25.70	0.00	7.59
23.456	17.20	25.75	0.00	7.59
23.486	17.20	25.75	0.09	7.67
23.516	17.20	25.75	0.09	7.67
23.545	17.17	25.72	0.09	7.67
23.575	17.17	25.72	0.05	7.64
23.605	17.17	25.72	0.05	7.64
23.635	17.20	25.75	0.05	7.64
23.664	17.20	25.75	0.00	7.58
23.694	17.20	25.75	0.00	7.58
23.724	17.34	25.89	0.00	7.58
23.754	17.34	25.89	0.11	7.69
23.783	17.34	25.89	0.11	7.69
23.813	17.23	25.79	0.11	7.69
23.843	17.23	25.79	0.01	7.59
23.873	17.23	25.79	0.01	7.59
23.902	17.17	25.73	0.01	7.59
23.932	17.17	25.73	0.08	7.67
23.962	17.17	25.73	0.08	7.67
23.992	17.24	25.80	0.08	7.67
24.021	17.24	25.80	0.06	7.64
24.051	17.24	25.80	0.06	7.64
24.081	17.36	25.92	0.06	7.64
24.111	17.36	25.92	0.00	7.58
24.141	17.36	25.92	0.00	7.58
24.170	17.29	25.84	0.00	7.58
24.200	17.29	25.84	0.10	7.69
24.230	17.29	25.84	0.10	7.69
24.260	17.23	25.79	0.10	7.69
24.289	17.23	25.79	0.01	7.59
24.319	17.23	25.79	0.01	7.59
24.349	17.12	25.68	0.01	7.59
24.379	17.12	25.68	0.08	7.66
24.408	17.12	25.68	0.08	7.66
24.438	17.19	25.74	0.08	7.66
24.468	17.19	25.74	0.07	7.65
24.498	17.19	25.74	0.07	7.65
24.527	17.15	25.70	0.07	7.65
24.557	17.15	25.70	0.00	7.58
24.587	17.15	25.70	0.00	7.58
24.617	17.23	25.79	0.00	7.58
24.646	17.23	25.79	0.11	7.69
24.676	17.23	25.79	0.11	7.69
24.706	17.17	25.73	0.11	7.69
24.736	17.17	25.73	0.01	7.59
24.765	17.17	25.73	0.01	7.59
24.795	17.12	25.67	0.01	7.59
24.825	17.12	25.67	0.08	7.66
24.855	17.12	25.67	0.08	7.66
24.885	17.17	25.73	0.08	7.66
24.914	17.17	25.73	0.07	7.65
24.944	17.17	25.73	0.07	7.65
24.974	17.26	25.82	0.07	7.65
25.004	17.26	25.82	0.00	7.58
25.033	17.26	25.82	0.00	7.58
25.063	17.29	25.85	0.00	7.58
25.093	17.29	25.85	0.11	7.69
25.123	17.29	25.85	0.11	7.69
25.152	17.25	25.80	0.11	7.69
25.182	17.25	25.80	0.01	7.60
25.212	17.25	25.80	0.01	7.60
25.242	17.33	25.89	0.01	7.60
25.271	17.33	25.89	0.08	7.66
25.301	17.33	25.89	0.08	7.66
25.331	17.56	26.11	0.08	7.66
25.361	17.56	26.11	0.08	7.66
25.390	17.56	26.11	0.08	7.66
25.420	17.38	25.93	0.08	7.66
25.450	17.38	25.93	0.00	7.58
25.480	17.38	25.93	0.00	7.58
25.509	17.44	26.00	0.00	7.58
25.539	17.44	26.00	0.11	7.69
25.569	17.44	26.00	0.11	7.69
25.599	17.37	25.92	0.11	7.69
25.628	17.37	25.92	0.02	7.60
25.658	17.37	25.92	0.02	7.60
25.688	17.33	25.88	0.02	7.60
25.718	17.33	25.88	0.07	7.65
25.748	17.33	25.88	0.07	7.65
25.777	17.42	25.98	0.07	7.65
25.807	17.42	25.98	0.09	7.67
25.837	17.42	25.98	0.09	7.67
25.867	17.33	25.89	0.09	7.67
25.896	17.33	25.89	0.00	7.58
25.926	17.33	25.89	0.00	7.58
25.956	17.33	25.89	0.00	7.58
25.986	17.33	25.89	0.11	7.69
26.015	17.33	25.89	0.11	7.69
26.045	17.23	25.78	0.11	7.69
26.075	17.23	25.78	0.01	7.60
26.105	17.23	25.78	0.01	7.60
26.134	17.23	25.78	0.01	7.60
26.164	17.23	25.78	0.07	7.65
26.194	17.23	25.78	0.07	7.65
26.224	17.26	25.82	0.07	7.65
26.253	17.26	25.82	0.09	7.67
26.283	17.26	25.82	0.09	7.67
26.313	17.23	25.79	0.09	7.67
26.343	17.23	25.79	0.00	7.58
26.372	17.23	25.79	0.00	7.58
26.402	17.27	25.83	0.00	7.58
26.432	17.27	25.83	0.11	7.69
26.462	17.27	25.83	0.11	7.69
26.491	17.31	25.87	0.11	7.69
26.521	17.31	25.87	0.02	7.60
26.551	17.31	25.87	0.02	7.60
26.581	17.32	25.88	0.02	7.60
26.610	17.32	25.88	0.07	7.65
26.640	17.32	25.88	0.07	7.65
26.670	17.39	25.94	0.07	7.65
26.700	17.39	25.94	0.10	7.68
26.729	17.39	25.94	0.10	7.68
26.759	17.37	25.92	0.10	7.68
26.789	17.37	25.92	-0.00	7.58
26.819	17.37	25.92	-0.00	7.58
26.849	17.36	25.91	-0.00	7.58
26.878	17.36	25.91	0.10	7.69
26.908	17.36	25.91	0.10	7.69
26.938	17.27	25.82	0.10	7.69
26.968	17.27	25.82	0.02	7.60
26.997	17.27	25.82	0.02	7.60
27.027	17.26	25.82	0.02	7.60
27.057	17.26	25.82	0.06	7.64
27.087	17.26	25.82	0.06	7.64
27.116	17.18	25.73	0.06	7.64
27.146	17.18	25.73	0.10	7.68
27.176	17.18	25.73	0.10	7.68
27.206	17.26	25.82	0.10	7.68
27.235	17.26	25.82	-0.00	7.58
27.265	17.26	25.82	-0.00	7.58
27.295	17.28	25.83	-0.00	7.58
27.325	17.28	25.83	0.10	7.68
27.355	17.28	25.83	0.10	7.68
27.384	17.39	25.94	0.10	7.68
27.414	17.39	25.94	0.02	7.60
27.444	17.39	25.94	0.02	7.60
27.474	17.26	25.82	0.02	7.60
27.503	17.26	25.82	0.05	7.63
27.533	17.26	25.82	0.05	7.63
27.563	17.26	25.82	0.05	7.63
27.593	17.26	25.82	0.10	7.68
27.622	17.26	25.82	0.10	7.68
27.652	17.15	25.71	0.10	7.68
27.682	17.15	25.71	0.00	7.58
27.712	17.15	25.71	0.00	7.58
27.741	17.33	25.88	0.00	7.58
27.771	17.33	25.88	0.10	7.69
27.801	17.33	25.88	0.10	7.69
27.831	17.39	25.94	0.10	7.69
27.860	17.39	25.94	0.02	7.60
27.890	17.39	25.94	0.02	7.60
27.920	17.32	25.87	0.02	7.60
27.950	17.32	25.87	0.05	7.63
27.980	17.32	25.87	0.05	7.63
28.009	17.28	25.83	0.05	7.63
28.039	17.28	25.83	0.11	7.69
28.069	17.28	25.83	0.11	7.69
28.099	17.24	25.79	0.11	7.69
28.128	17.24	25.79	-0.00	7.58
28.158	17.24	25.79	-0.00	7.58
28.188	17.17	25.73	-0.00	7.58
28.218	17.17	25.73	0.10	7.68
28.247	17.17	25.73	0.10	7.68
28.277	17.31	25.86	0.10	7.68
28.307	17.31	25.86	0.03	7.61
28.337	17.31	25.86	0.03	7.61
28.367	17.38	25.93	0.03	7.61
28.396	17.38	25.93	0.04	7.62
28.426	17.38	25.93	0.04	7.62
28.456	17.25	25.81	0.04	7.62
28.486	17.25	25.81	0.10	7.69
28.515	17.25	25.81	0.10	7.69
28.545	17.25	25.81	0.10	7.69
28.575	17.25	25.81	-0.00	7.58
28.605	17.25	25.81	-0.00	7.58
28.634	17.29	25.84	-0.00	7.58
28.664	17.29	25.84	0.09	7.68
28.694	17.29	25.84	0.09	7.68
28.724	17.28	25.84	0.09	7.68
28.753	17.28	25.84	0.03	7.61
28.783	17.28	25.84	0.03	7.61
28.813	17.16	25.72	0.03	7.61
28.843	17.16	25.72	0.03	7.61
28.872	17.16	25.72	0.03	7.61
28.902	17.28	25.83	0.03	7.61
28.932	17.28	25.83	0.10	7.68
28.962	17.28	25.83	0.10	7.68
28.992	17.16	25.71	0.10	7.68
29.021	17.16	25.71	0.00	7.58
29.051	17.16	25.71	0.00	7.58
29.081	17.07	25.63	0.00	7.58
29.111	17.07	25.63	0.09	7.67
29.140	17.07	25.63	0.09	7.67
29.170	17.16	25.72	0.09	7.67
29.200	17.16	25.72	0.03	7.62
29.230	17.16	25.72	0.03	7.62
29.259	17.34	25.89	0.03	7.62
29.289	17.34	25.89	0.02	7.60
29.319	17.34	25.89	0.02	7.60
29.349	17.31	25.86	0.02	7.60
29.378	17.31	25.86	0.11	7.69
29.408	17.31	25.86	0.11	7.69
29.438	17.30	25.85	0.11	7.69
29.468	17.30	25.85	0.00	7.58
29.498	17.30	25.85	0.00	7.58
29.527	17.38	25.93	0.00	7.58
29.557	17.38	25.93	0.09	7.67
29.587	17.38	25.93	0.09	7.67
29.616	17.30	25.86	0.09	7.67
29.646	17.30	25.86	0.04	7.62
29.676	17.30	25.86	0.04	7.62
29.706	17.25	25.81	0.04	7.62
29.736	17.25	25.81	0.01	7.60
29.765	17.25	25.81	0.01	7.60
29.795	17.31	25.86	0.01	7.60
29.825	17.31	25.86	0.11	7.69
29.855	17.31	25.86	0.11	7.69
29.884	17.18	25.74	0.11	7.69
29.914	17.18	25.74	0.00	7.58
29.944	17.18	25.74	0.00	7.58
29.974	17.28	25.83	0.00	7.58
30.003	17.28	25.83	0.09	7.67
30.033	17.28	25.83	0.09	7.67
30.063	17.23	25.78	0.09	7.67
30.093	17.23	25.78	0.04	7.63
30.122	17.23	25.78	0.04	7.63
30.152	17.38	25.93	0.04	7.63
30.182	17.38	25.93	0.01	7.59
30.212	17.38	25.93	0.01	7.59
30.241	17.43	25.99	0.01	7.59
30.271	17.43	25.99	0.11	7.69
30.301	17.43	25.99	0.11	7.69
30.331	17.29	25.84	0.11	7.69
30.360	17.29	25.84	0.00	7.58
30.390	17.29	25.84	0.00	7.58
30.420	17.41	25.97	0.00	7.58
30.450	17.41	25.97	0.09	7.67
30.479	17.41	25.97	0.09	7.67
30.509	17.42	25.98	0.09	7.67
30.539	17.42	25.98	0.05	7.63
30.569	17.42	25.98	0.05	7.63
30.598	17.33	25.89	0.05	7.63
30.628	17.33	25.89	0.00	7.58
30.658	17.33	25.89	0.00	7.58
30.688	17.38	25.93	0.00	7.58
30.717	17.38	25.93	0.11	7.69
30.747	17.38	25.93	0.11	7.69
30.777	17.44	26.00	0.11	7.69
30.807	17.44	26.00	0.01	7.59
30.837	17.44	26.00	0.01	7.59
30.866	17.40	25.96	0.01	7.59
30.896	17.40	25.96	0.08	7.66
30.926	17.40	25.96	0.08	7.66
30.956	17.47	26.03	0.08	7.66
30.985	17.47	26.03	0.05	7.64
31.015	17.47	26.03	0.05	7.64
31.045	17.29	25.85	0.05	7.64
31.075	17.29	25.85	0.00	7.58
31.104	17.29	25.85	0.00	7.58
31.134	17.37	25.92	0.00	7.58
31.164	17.37	25.92	0.10	7.69
31.194	17.37	25.92	0.10	7.69
31.223	17.33	25.88	0.10	7.69
31.253	17.33	25.88	0.01	7.59
31.283	17.33	25.88	0.01	7.59
31.313	17.36	25.92	0.01	7.59
31.343	17.36	25.92	0.08	7.66
31.372	17.36	25.92	0.08	7.66
31.402	17.42	25.97	0.08	7.66
31.432	17.42	25.97	0.06	7.65
31.462	17.42	25.97	0.06	7.65
31.491	17.44	25.99	0.06	7.65
31.521	17.44	25.99	-0.00	7.58
31.551	17.44	25.99	-0.00	7.58
31.581	17.57	26.13	-0.00	7.58
31.610	17.57	26.13	0.11	7.69
31.640	17.57	26.13	0.11	7.69
31.670	17.57	26.13	0.11	7.69
31.700	17.57	26.13	0.01	7.59
31.729	17.57	26.13	0.01	7.59
31.759	17.47	26.03	0.01	7.59
31.789	17.47	26.03	0.08	7.66
31.819	17.47	26.03	0.08	7.66
31.849	17.49	26.04	0.08	7.66
31.878	17.49	26.04	0.07	7.65
31.908	17.49	26.04	0.07	7.65
31.938	17.52	26.08	0.07	7.65
31.968	17.52	26.08	-0.00	7.58
31.997	17.52	26.08	-0.00	7.58
32.027	17.55	26.11	-0.00	7.58
32.057	17.55	26.11	0.11	7.69
32.087	17.55	26.11	0.11	7.69
32.116	17.54	26.09	0.11	7.69
32.146	17.54	26.09	0.01	7.59
32.176	17.54	26.09	0.01	7.59
32.206	17.50	26.05	0.01	7.59
32.235	17.50	26.05	0.08	7.66
32.265	17.50	26.05	0.08	7.66
32.295	17.37	25.93	0.08	7.66
32.325	17.37	25.93	0.08	7.66
32.354	17.37	25.93	0.08	7.66
32.384	17.47	26.02	0.08	7.66
32.414	17.47	26.02	-0.00	7.58
32.444	17.47	26.02	-0.00	7.58
32.474	17.53	26.09	-0.00	7.58
32.503	17.53	26.09	0.11	7.69
32.533	17.53	26.09	0.11	7.69
32.563	17.33	25.88	0.11	7.69
32.593	17.33	25.88	0.01	7.59
32.622	17.33	25.88	0.01	7.59
32.652	17.42	25.98	0.01	7.59
32.682	17.42	25.98	0.07	7.65
32.712	17.42	25.98	0.07	7.65
32.741	17.35	25.91	0.07	7.65
32.771	17.35	25.91	0.08	7.66
32.801	17.35	25.91	0.08	7.66
32.831	17.49	26.04	0.08	7.66
32.860	17.49	26.04	-0.00	7.58
32.890	17.49	26.04	-0.00	7.58
32.920	17.51	26.07	-0.00	7.58
32.950	17.51	26.07	0.11	7.69
32.979	17.51	26.07	0.11	7.69
33.009	17.49	26.04	0.11	7.69
33.039	17.49	26.04	0.02	7.60
33.069	17.49	26.04	0.02	7.60
33.099	17.56	26.11	0.02	7.60
33.128	17.56	26.11	0.07	7.65
33.158	17.56	26.11	0.07	7.65
33.188	17.52	26.07	0.07	7.65
33.218	17.52	26.07	0.09	7.67
33.247	17.52	26.07	0.09	7.67
33.277	17.40	25.95	0.09	7.67
33.307	17.40	25.95	-0.00	7.58
33.337	17.40	25.95	-0.00	7.58
33.366	17.58	26.13	-0.00	7.58
33.396	17.58	26.13	0.11	7.69
33.426	17.58	26.13	0.11	7.69
33.456	17.52	26.07	0.11	7.69
33.485	17.52	26.07	0.02	7.60
33.515	17.52	26.07	0.02	7.60
33.545	17.47	26.02	0.02	7.60
33.575	17.47	26.02	0.07	7.65
33.605	17.47	26.02	0.07	7.65
33.634	17.39	25.94	0.07	7.65
33.664	17.39	25.94	0.09	7.67
33.694	17.39	25.94	0.09	7.67
33.724	17.41	25.97	0.09	7.67
33.753	17.41	25.97	-0.00	7.58
33.783	17.41	25.97	-0.00	7.58
33.813	17.48	26.03	-0.00	7.58
33.843	17.48	26.03	0.11	7.69
33.872	17.48	26.03	0.11	7.69
33.902	17.48	26.04	0.11	7.69
33.932	17.48	26.04	0.02	7.60
33.962	17.48	26.04	0.02	7.60
33.991	17.47	26.03	0.02	7.60
34.021	17.47	26.03	0.06	7.64
34.051	17.47	26.03	0.06	7.64
34.081	17.50	26.06	0.06	7.64
34.110	17.50	26.06	0.10	7.68
34.140	17.50	26.06	0.10	7.68
34.170	17.37	25.93	0.10	7.68
34.200	17.37	25.93	-0.00	7.58
34.230	17.37	25.93	-0.00	7.58
34.259	17.43	25.99	-0.00	7.58
34.289	17.43	25.99	0.11	7.69
34.319	17.43	25.99	0.11	7.69
34.349	17.26	25.82	0.11	7.69
34.378	17.26	25.82	0.02	7.60
34.408	17.26	25.82	0.02	7.60
34.438	17.27	25.82	0.02	7.60
34.468	17.27	25.82	0.06	7.64
34.497	17.27	25.82	0.06	7.64
34.527	17.24	25.79	0.06	7.64
34.557	17.24	25.79	0.10	7.68
34.587	17.24	25.79	0.10	7.68
34.616	17.19	25.74	0.10	7.68
34.646	17.19	25.74	0.00	7.58
34.676	17.19	25.74	0.00	7.58
34.706	17.20	25.76	0.00	7.58
34.736	17.20	25.76	0.10	7.68
34.765	17.20	25.76	0.10	7.68
34.795	17.27	25.82	0.10	7.68
34.825	17.27	25.82	0.02	7.60
34.855	17.27	25.82	0.02	7.60
34.884	17.21	25.76	0.02	7.60
34.914	17.21	25.76	0.05	7.63
34.944	17.21	25.76	0.05	7.63
34.974	17.26	25.82	0.05	7.63
35.003	17.26	25.82	0.10	7.69
35.033	17.26	25.82	0.10	7.69
35.063	17.23	25.79	0.10	7.69
35.093	17.23	25.79	-0.00	7.58
35.122	17.23	25.79	-0.00	7.58
35.152	17.24	25.79	-0.00	7.58
35.182	17.24	25.79	0.10	7.68
35.212	17.24	25.79	0.10	7.68
35.242	17.34	25.90	0.10	7.68
35.271	17.34	25.90	0.02	7.60
35.301	17.34	25.90	0.02	7.60
35.331	17.28	25.83	0.02	7.60
35.361	17.28	25.83	0.05	7.63
35.390	17.28	25.83	0.05	7.63
35.420	17.21	25.77	0.05	7.63
35.450	17.21	25.77	0.10	7.69
35.480	17.21	25.77	0.10	7.69
35.509	17.15	25.70	0.10	7.69
35.539	17.15	25.70	0.00	7.58
35.569	17.15	25.70	0.00	7.58
35.599	17.21	25.76	0.00	7.58
35.628	17.21	25.76	0.10	7.68
35.658	17.21	25.76	0.10	7.68
35.688	17.24	25.80	0.10	7.68
35.718	17.24	25.80	0.03	7.61
35.747	17.24	25.80	0.03	7.61
35.777	17.48	26.03	0.03	7.61
35.807	17.48	26.03	0.04	7.62
35.837	17.48	26.03	0.04	7.62
35.866	17.29	25.84	0.04	7.62
35.896	17.29	25.84	0.11	7.69
35.926	17.29	25.84	0.11	7.69
35.956	17.24	25.79	0.11	7.69
35.985	17.24	25.79	0.00	7.58
36.015	17.24	25.79	0.00	7.58
36.045	17.27	25.83	0.00	7.58
36.075	17.27	25.83	0.10	7.68
36.104	17.27	25.83	0.10	7.68
36.134	17.24	25.80	0.10	7.68
36.164	17.24	25.80	0.02	7.60
36.194	17.24	25.80	0.02	7.60
36.223	17.25	25.80	0.02	7.60
36.253	17.25	25.80	0.04	7.62
36.283	17.25	25.80	0.04	7.62
36.313	17.22	25.78	0.04	7.62
36.343	17.22	25.78	0.10	7.69
36.372	17.22	25.78	0.10	7.69
36.402	17.04	25.59	0.10	7.69
36.432	17.04	25.59	-0.00	7.58
36.462	17.04	25.59	-0.00	7.58
36.491	17.18	25.74	-0.00	7.58
36.521	17.18	25.74	0.10	7.68
36.551	17.18	25.74	0.10	7.68
36.581	17.22	25.77	0.10	7.68
36.610	17.22	25.77	0.03	7.61
36.640	17.22	25.77	0.03	7.61
36.670	17.12	25.68	0.03	7.61
36.700	17.12	25.68	0.03	7.61
36.729	17.12	25.68	0.03	7.61
36.759	17.16	25.72	0.03	7.61
36.789	17.16	25.72	0.11	7.69
36.819	17.16	25.72	0.11	7.69
36.848	17.01	25.56	0.11	7.69
36.878	17.01	25.56	-0.00	7.58
36.908	17.01	25.56	-0.00	7.58
36.938	17.10	25.66	-0.00	7.58
36.967	17.10	25.66	0.09	7.67
36.997	17.10	25.66	0.09	7.67
37.027	17.11	25.66	0.09	7.67
37.057	17.11	25.66	0.03	7.61
37.086	17.11	25.66	0.03	7.61
37.116	17.00	25.56	0.03	7.61
37.146	17.00	25.56	0.03	7.61
37.176	17.00	25.56	0.03	7.61
37.206	17.03	25.58	0.03	7.61
37.235	17.03	25.58	0.11	7.69
37.265	17.03	25.58	0.11	7.69
37.295	17.00	25.55	0.11	7.69
37.325	17.00	25.55	-0.00	7.58
37.354	17.00	25.55	-0.00	7.58
37.384	17.09	25.64	-0.00	7.58
37.414	17.09	25.64	0.09	7.67
37.444	17.09	25.64	0.09	7.67
37.473	16.98	25.54	0.09	7.67
37.503	16.98	25.54	0.03	7.61
37.533	16.98	25.54	0.03	7.61
37.563	17.05	25.60	0.03	7.61
37.592	17.05	25.60	0.03	7.61
37.622	17.05	25.60	0.03	7.61
37.652	17.03	25.59	0.03	7.61
37.682	17.03	25.59	0.10	7.69
37.712	17.03	25.59	0.10	7.69
37.741	17.01	25.57	0.10	7.69
37.771	17.01	25.57	0.00	7.58
37.801	17.01	25.57	0.00	7.58
37.831	16.96	25.51	0.00	7.58
37.860	16.96	25.51	0.09	7.67
37.890	16.96	25.51	0.09	7.67
37.920	16.98	25.53	0.09	7.67
37.950	16.98	25.53	0.04	7.62
37.979	16.98	25.53	0.04	7.62
38.009	17.02	25.58	0.04	7.62
38.039	17.02	25.58	0.02	7.60
38.069	17.02	25.58	0.02	7.60
38.098	17.12	25.68	0.02	7.60
38.128	17.12	25.68	0.11	7.69
38.158	17.12	25.68	0.11	7.69
38.188	17.26	25.82	0.11	7.69
38.217	17.26	25.82	-0.00	7.58
38.247	17.26	25.82	-0.00	7.58
38.277	17.17	25.73	-0.00	7.58
38.307	17.17	25.73	0.09	7.67
38.336	17.17	25.73	0.09	7.67
38.366	17.20	25.76	0.09	7.67
38.396	17.20	25.76	0.03	7.61
38.426	17.20	25.76	0.03	7.61
38.456	17.23	25.79	0.03	7.61
38.485	17.23	25.79	0.02	7.60
38.515	17.23	25.79	0.02	7.60
38.545	17.29	25.84	0.02	7.60
38.575	17.29	25.84	0.11	7.69
38.604	17.29	25.84	0.11	7.69
38.634	17.27	25.83	0.11	7.69
38.664	17.27	25.83	0.00	7.58
38.694	17.27	25.83	0.00	7.58
38.723	17.30	25.85	0.00	7.58
38.753	17.30	25.85	0.09	7.67
38.783	17.30	25.85	0.09	7.67
38.813	17.24	25.79	0.09	7.67
38.842	17.24	25.79	0.04	7.62
38.872	17.24	25.79	0.04	7.62
38.902	17.22	25.78	0.04	7.62
38.932	17.22	25.78	0.02	7.60
38.961	17.22	25.78	0.02	7.60
38.991	17.22	25.78	0.02	7.60
39.021	17.22	25.78	0.11	7.69
39.051	17.22	25.78	0.11	7.69
39.080	17.25	25.80	0.11	7.69
39.110	17.25	25.80	-0.00	7.58
39.140	17.25	25.80	-0.00	7.58
39.170	17.33	25.89	-0.00	7.58
39.199	17.33	25.89	0.09	7.67
39.229	17.33	25.89	0.09	7.67
39.259	17.31	25.86	0.09	7.67
39.289	17.31	25.86	0.04	7.62
39.319	17.31	25.86	0.04	7.62
39.348	17.29	25.85	0.04	7.62
39.378	17.29	25.85	0.01	7.60
39.408	17.29	25.85	0.01	7.60
39.438	17.38	25.93	0.01	7.60
39.467	17.38	25.93	0.11	7.69
39.497	17.38	25.93	0.11	7.69
39.527	17.52	26.07	0.11	7.69
39.557	17.52	26.07	-0.00	7.58
39.586	17.52	26.07	-0.00	7.58
39.616	17.60	26.15	-0.00	7.58
39.646	17.60	26.15	0.08	7.67
39.676	17.60	26.15	0.08	7.67
39.705	17.59	26.14	0.08	7.67
39.735	17.59	26.14	0.04	7.62
39.765	17.59	26.14	0.04	7.62
39.795	17.57	26.13	0.04	7.62
39.825	17.57	26.13	0.01	7.59
39.854	17.57	26.13	0.01	7.59
39.884	17.55	26.10	0.01	7.59
39.914	17.55	26.10	0.11	7.69
39.944	17.55	26.10	0.11	7.69
39.973	17.65	26.20	0.11	7.69
40.003	17.65	26.20	0.00	7.58
40.033	17.65	26.20	0.00	7.58
40.063	17.69	26.24	0.00	7.58
40.092	17.69	26.24	0.09	7.67
40.122	17.69	26.24	0.09	7.67
40.152	17.54	26.09	0.09	7.67
40.182	17.54	26.09	0.05	7.63
40.211	17.54	26.09	0.05	7.63
40.241	17.64	26.20	0.05	7.63
40.271	17.64	26.20	0.01	7.59
40.301	17.64	26.20	0.01	7.59
40.331	17.56	26.11	0.01	7.59
40.360	17.56	26.11	0.11	7.69
40.390	17.56	26.11	0.11	7.69
40.420	17.55	26.11	0.11	7.69
40.450	17.55	26.11	0.00	7.58
40.479	17.55	26.11	0.00	7.58
40.509	17.51	26.06	0.00	7.58
40.539	17.51	26.06	0.08	7.66
40.569	17.51	26.06	0.08	7.66
40.598	17.61	26.17	0.08	7.66
40.628	17.61	26.17	0.05	7.63
40.658	17.61	26.17	0.05	7.63
40.688	17.55	26.10	0.05	7.63
40.717	17.55	26.10	0.00	7.58
40.747	17.55	26.10	0.00	7.58
40.777	17.43	25.99	0.00	7.58
40.807	17.43	25.99	0.11	7.69
40.836	17.43	25.99	0.11	7.69
40.866	17.50	26.05	0.11	7.69
40.896	17.50	26.05	0.00	7.59
40.926	17.50	26.05	0.00	7.59
40.955	17.56	26.11	0.00	7.59
40.985	17.56	26.11	0.09	7.67
41.015	17.56	26.11	0.09	7.67
41.045	17.53	26.08	0.09	7.67
41.075	17.53	26.08	0.05	7.63
41.104	17.53	26.08	0.05	7.63
41.134	17.65	26.21	0.05	7.63
41.164	17.65	26.21	0.00	7.59
41.194	17.65	26.21	0.00	7.59
41.223	17.65	26.21	0.00	7.59
41.253	17.65	26.21	0.11	7.69
41.283	17.65	26.21	0.11	7.69
41.313	17.70	26.25	0.11	7.69
41.342	17.70	26.25	0.01	7.59
41.372	17.70	26.25	0.01	7.59
41.402	17.87	26.42	0.01	7.59
41.432	17.87	26.42	0.08	7.67
41.461	17.87	26.42	0.08	7.67
41.491	17.71	26.27	0.08	7.67
41.521	17.71	26.27	0.05	7.64
41.551	17.71	26.27	0.05	7.64
41.581	17.68	26.23	0.05	7.64
41.610	17.68	26.23	0.00	7.58
41.640	17.68	26.23	0.00	7.58
41.670	17.63	26.18	0.00	7.58
41.700	17.63	26.18	0.11	7.69
41.729	17.63	26.18	0.11	7.69
41.759	17.70	26.25	0.11	7.69
41.789	17.70	26.25	0.00	7.59
41.819	17.70	26.25	0.00	7.59
41.848	17.72	26.28	0.00	7.59
41.878	17.72	26.28	0.08	7.66
41.908	17.72	26.28	0.08	7.66
41.938	17.77	26.33	0.08	7.66
41.967	17.77	26.33	0.05	7.63
41.997	17.77	26.33	0.05	7.63
42.027	17.78	26.33	0.05	7.63
42.057	17.78	26.33	0.00	7.58
42.086	17.78	26.33	0.00	7.58
42.116	17.78	26.33	0.00	7.58
42.146	17.78	26.33	0.10	7.69
42.176	17.78	26.33	0.10	7.69
42.205	17.64	26.20	0.10	7.69
42.235	17.64	26.20	0.01	7.59
42.265	17.64	26.20	0.01	7.59
42.295	17.67	26.22	0.01	7.59
42.325	17.67	26.22	0.08	7.67
42.354	17.67	26.22	0.08	7.67
42.384	17.64	26.20	0.08	7.67
42.414	17.64	26.20	0.06	7.64
42.444	17.64	26.20	0.06	7.64
42.473	17.71	26.27	0.06	7.64
42.503	17.71	26.27	0.00	7.58
42.533	17.71	26.27	0.00	7.58
42.563	17.77	26.32	0.00	7.58
42.592	17.77	26.32	0.11	7.69
42.622	17.77	26.32	0.11	7.69
42.652	17.84	26.40	0.11	7.69
42.682	17.84	26.40	0.00	7.59
42.711	17.84	26.40	0.00	7.59
42.741	17.78	26.33	0.00	7.59
42.771	17.78	26.33	0.08	7.67
42.801	17.78	26.33	0.08	7.67
42.831	17.78	26.34	0.08	7.67
42.860	17.78	26.34	0.06	7.65
42.890	17.78	26.34	0.06	7.65
42.920	17.77	26.32	0.06	7.65
42.950	17.77	26.32	0.00	7.58
42.979	17.77	26.32	0.00	7.58
43.009	17.81	26.37	0.00	7.58
43.039	17.81	26.37	0.11	7.69
43.069	17.81	26.37	0.11	7.69
43.098	17.78	26.33	0.11	7.69
43.128	17.78	26.33	0.01	7.59
43.158	17.78	26.33	0.01	7.59
43.188	17.68	26.23	0.01	7.59
43.217	17.68	26.23	0.08	7.66
43.247	17.68	26.23	0.08	7.66
43.277	17.74	26.29	0.08	7.66
43.307	17.74	26.29	0.06	7.64
43.337	17.74	26.29	0.06	7.64
43.366	17.72	26.27	0.06	7.64
43.396	17.72	26.27	0.00	7.58
43.426	17.72	26.27	0.00	7.58
43.456	17.81	26.36	0.00	7.58
43.485	17.81	26.36	0.11	7.69
43.515	17.81	26.36	0.11	7.69
43.545	17.91	26.47	0.11	7.69
43.575	17.91	26.47	0.01	7.59
43.604	17.91	26.47	0.01	7.59
43.634	18.00	26.55	0.01	7.59
43.664	18.00	26.55	0.08	7.66
43.694	18.00	26.55	0.08	7.66
43.723	18.02	26.58	0.08	7.66
43.753	18.02	26.58	0.06	7.65
43.783	18.02	26.58	0.06	7.65
43.813	17.97	26.52	0.06	7.65
43.842	17.97	26.52	-0.00	7.58
43.872	17.97	26.52	-0.00	7.58
43.902	17.96	26.51	-0.00	7.58
43.932	17.96	26.51	0.11	7.69
43.961	17.96	26.51	0.11	7.69
43.991	17.98	26.53	0.11	7.69
44.021	17.98	26.53	0.01	7.59
44.051	17.98	26.53	0.01	7.59
44.080	18.02	26.58	0.01	7.59
44.110	18.02	26.58	0.08	7.66
44.140	18.02	26.58	0.08	7.66
44.170	18.03	26.58	0.08	7.66
44.200	18.03	26.58	0.07	7.65
44.229	18.03	26.58	0.07	7.65
44.259	18.04	26.59	0.07	7.65
44.289	18.04	26.59	0.00	7.58
44.319	18.04	26.59	0.00	7.58
44.348	18.06	26.62	0.00	7.58
44.378	18.06	26.62	0.10	7.69
44.408	18.06	26.62	0.10	7.69
44.438	18.04	26.59	0.10	7.69
44.467	18.04	26.59	0.01	7.59
44.497	18.04	26.59	0.01	7.59
44.527	18.15	26.70	0.01	7.59
44.557	18.15	26.70	0.08	7.67
44.586	18.15	26.70	0.08	7.67
44.616	18.11	26.67	0.08	7.67
44.646	18.11	26.67	0.07	7.65
44.676	18.11	26.67	0.07	7.65
44.705	18.04	26.60	0.07	7.65
44.735	18.04	26.60	-0.00	7.58
44.765	18.04	26.60	-0.00	7.58
44.795	18.17	26.72	-0.00	7.58
44.825	18.17	26.72	0.11	7.69
44.854	18.17	26.72	0.11	7.69
44.884	18.17	26.72	0.11	7.69
44.914	18.17	26.72	0.01	7.59
44.944	18.17	26.72	0.01	7.59
44.973	18.22	26.78	0.01	7.59
45.003	18.22	26.78	0.08	7.66
45.033	18.22	26.78	0.08	7.66
45.063	18.16	26.72	0.08	7.66
45.092	18.16	26.72	0.07	7.65
45.122	18.16	26.72	0.07	7.65
45.152	18.19	26.75	0.07	7.65
45.182	18.19	26.75	0.00	7.58
45.211	18.19	26.75	0.00	7.58
45.241	18.06	26.62	0.00	7.58
45.271	18.06	26.62	0.11	7.69
45.301	18.06	26.62	0.11	7.69
45.331	18.11	26.66	0.11	7.69
45.360	18.11	26.66	0.01	7.59
45.390	18.11	26.66	0.01	7.59
45.420	18.05	26.60	0.01	7.59
45.450	18.05	26.60	0.07	7.65
45.479	18.05	26.60	0.07	7.65
45.509	17.96	26.52	0.07	7.65
45.539	17.96	26.52	0.08	7.66
45.569	17.96	26.52	0.08	7.66
45.598	18.00	26.56	0.08	7.66
45.628	18.00	26.56	0.00	7.58
45.658	18.00	26.56	0.00	7.58
45.688	18.06	26.62	0.00	7.58
45.717	18.06	26.62	0.11	7.69
45.747	18.06	26.62	0.11	7.69
45.777	17.99	26.55	0.11	7.69
45.807	17.99	26.55	0.02	7.60
45.836	17.99	26.55	0.02	7.60
45.866	18.03	26.58	0.02	7.60
45.896	18.03	26.58	0.07	7.65
45.926	18.03	26.58	0.07	7.65
45.955	18.11	26.67	0.07	7.65
45.985	18.11	26.67	0.08	7.66
46.015	18.11	26.67	0.08	7.66
46.045	18.15	26.71	0.08	7.66
46.074	18.15	26.71	-0.00	7.58
46.104	18.15	26.71	-0.00	7.58
46.134	18.07	26.63	-0.00	7.58
46.164	18.07	26.63	0.11	7.69
46.194	18.07	26.63	0.11	7.69
46.223	17.99	26.54	0.11	7.69
46.253	17.99	26.54	0.02	7.60
46.283	17.99	26.54	0.02	7.60
46.313	18.11	26.66	0.02	7.60
46.342	18.11	26.66	0.07	7.65
46.372	18.11	26.66	0.07	7.65
46.402	18.08	26.63	0.07	7.65
46.432	18.08	26.63	0.08	7.66
46.461	18.08	26.63	0.08	7.66
46.491	18.15	26.70	0.08	7.66
46.521	18.15	26.70	0.00	7.58
46.551	18.15	26.70	0.00	7.58
46.580	18.12	26.68	0.00	7.58
46.610	18.12	26.68	0.11	7.69
46.640	18.12	26.68	0.11	7.69
46.670	18.16	26.71	0.11	7.69
46.699	18.16	26.71	0.02	7.60
46.729	18.16	26.71	0.02	7.60
46.759	18.08	26.64	0.02	7.60
46.789	18.08	26.64	0.07	7.65
46.818	18.08	26.64	0.07	7.65
46.848	18.06	26.62	0.07	7.65
46.878	18.06	26.62	0.08	7.67
46.908	18.06	26.62	0.08	7.67
46.937	18.06	26.61	0.08	7.67
46.967	18.06	26.61	0.00	7.58
46.997	18.06	26.61	0.00	7.58
47.027	18.05	26.61	0.00	7.58
47.056	18.05	26.61	0.11	7.69
47.086	18.05	26.61	0.11	7.69
47.116	18.18	26.73	0.11	7.69
47.146	18.18	26.73	0.01	7.60
47.175	18.18	26.73	0.01	7.60
47.205	18.10	26.65	0.01	7.60
47.235	18.10	26.65	0.07	7.65
47.265	18.10	26.65	0.07	7.65
47.294	18.16	26.72	0.07	7.65
47.324	18.16	26.72	0.09	7.67
47.354	18.16	26.72	0.09	7.67
47.384	18.08	26.63	0.09	7.67
47.414	18.08	26.63	0.00	7.58
47.443	18.08	26.63	0.00	7.58
47.473	18.15	26.70	0.00	7.58
47.503	18.15	26.70	0.11	7.69
47.532	18.15	26.70	0.11	7.69
47.562	18.09	26.64	0.11	7.69
47.592	18.09	26.64	0.01	7.60
47.622	18.09	26.64	0.01	7.60
47.651	18.14	26.69	0.01	7.60
47.681	18.14	26.69	0.06	7.64
47.711	18.14	26.69	0.06	7.64
47.741	18.17	26.73	0.06	7.64
47.771	18.17	26.73	0.09	7.67
47.800	18.17	26.73	0.09	7.67
47.830	18.12	26.68	0.09	7.67
47.860	18.12	26.68	-0.00	7.58
47.890	18.12	26.68	-0.00	7.58
47.919	18.16	26.71	-0.00	7.58
47.949	18.16	26.71	0.10	7.68
47.979	18.16	26.71	0.10	7.68
48.009	18.09	26.64	0.10	7.68
48.038	18.09	26.64	0.02	7.60
48.068	18.09	26.64	0.02	7.60
48.098	18.09	26.64	0.02	7.60
48.128	18.09	26.64	0.06	7.64
48.157	18.09	26.64	0.06	7.64
48.187	18.15	26.71	0.06	7.64
48.217	18.15	26.71	0.10	7.68
48.247	18.15	26.71	0.10	7.68
48.276	18.21	26.77	0.10	7.68
48.306	18.21	26.77	-0.00	7.58
48.336	18.21	26.77	-0.00	7.58
48.366	18.04	26.60	-0.00	7.58
48.395	18.04	26.60	0.11	7.69
48.425	18.04	26.60	0.11	7.69
48.455	18.02	26.58	0.11	7.69
48.485	18.02	26.58	0.02	7.60
48.514	18.02	26.58	0.02	7.60
48.544	17.96	26.52	0.02	7.60
48.574	17.96	26.52	0.06	7.64
48.604	17.96	26.52	0.06	7.64
48.634	17.82	26.37	0.06	7.64
48.663	17.82	26.37	0.10	7.68
48.693	17.82	26.37	0.10	7.68
48.723	17.84	26.40	0.10	7.68
48.753	17.84	26.40	-0.00	7.58
48.782	17.84	26.40	-0.00	7.58
48.812	17.91	26.47	-0.00	7.58
48.842	17.91	26.47	0.10	7.69
48.872	17.91	26.47	0.10	7.69
48.901	17.89	26.44	0.10	7.69
48.931	17.89	26.44	0.02	7.60
48.961	17.89	26.44	0.02	7.60
48.991	17.96	26.51	0.02	7.60
49.020	17.96	26.51	0.05	7.64
49.050	17.96	26.51	0.05	7.64
49.080	17.91	26.46	0.05	7.64
49.110	17.91	26.46	0.10	7.68
49.140	17.91	26.46	0.10	7.68
49.169	17.99	26.55	0.10	7.68
49.199	17.99	26.55	0.00	7.58
49.229	17.99	26.55	0.00	7.58
49.259	17.88	26.43	0.00	7.58
49.288	17.88	26.43	0.11	7.69
49.318	17.88	26.43	0.11	7.69
49.348	17.77	26.32	0.11	7.69
49.378	17.77	26.32	0.02	7.60
49.407	17.77	26.32	0.02	7.60
49.437	17.93	26.48	0.02	7.60
49.467	17.93	26.48	0.05	7.63
49.497	17.93	26.48	0.05	7.63
49.526	17.83	26.38	0.05	7.63
49.556	17.83	26.38	0.10	7.68
49.586	17.83	26.38	0.10	7.68
49.616	17.92	26.48	0.10	7.68
49.645	17.92	26.48	-0.00	7.58
49.675	17.92	26.48	-0.00	7.58
49.705	17.97	26.52	-0.00	7.58
49.735	17.97	26.52	0.10	7.68
49.764	17.97	26.52	0.10	7.68
49.794	18.00	26.56	0.10	7.68
49.824	18.00	26.56	0.02	7.60
49.854	18.00	26.56	0.02	7.60
49.884	17.81	26.36	0.02	7.60
49.913	17.81	26.36	0.05	7.63
49.943	17.81	26.36	0.05	7.63
49.973	17.90	26.45	0.05	7.63
50.003	17.90	26.45	0.10	7.68
50.032	17.90	26.45	0.10	7.68
50.062	17.94	26.50	0.10	7.68
50.092	17.94	26.50	0.00	7.58
50.122	17.94	26.50	0.00	7.58
50.151	17.96	26.52	0.00	7.58
50.181	17.96	26.52	0.10	7.68
50.211	17.96	26.52	0.10	7.68
50.241	17.91	26.46	0.10	7.68
50.270	17.91	26.46	0.02	7.60
50.300	17.91	26.46	0.02	7.60
50.330	18.01	26.56	0.02	7.60
50.360	18.01	26.56	0.05	7.63
50.390	18.01	26.56	0.05	7.63
50.419	17.98	26.53	0.05	7.63
50.449	17.98	26.53	0.10	7.68
50.479	17.98	26.53	0.10	7.68
50.509	17.96	26.52	0.10	7.68
50.538	17.96	26.52	0.00	7.58
50.568	17.96	26.52	0.00	7.58
50.598	17.84	26.39	0.00	7.58
50.628	17.84	26.39	0.10	7.68
50.657	17.84	26.39	0.10	7.68
50.687	17.79	26.35	0.10	7.68
50.717	17.79	26.35	0.02	7.60
50.747	17.79	26.35	0.02	7.60
50.776	17.88	26.44	0.02	7.60
50.806	17.88	26.44	0.05	7.63
50.836	17.88	26.44	0.05	7.63
50.866	17.89	26.44	0.05	7.63
50.895	17.89	26.44	0.10	7.69
50.925	17.89	26.44	0.10	7.69
50.955	17.87	26.43	0.10	7.69
50.985	17.87	26.43	-0.00	7.58
51.014	17.87	26.43	-0.00	7.58
51.044	17.75	26.30	-0.00	7.58
51.074	17.75	26.30	0.10	7.68
51.104	17.75	26.30	0.10	7.68
51.133	17.90	26.45	0.10	7.68
51.163	17.90	26.45	0.02	7.60
51.193	17.90	26.45	0.02	7.60
51.223	18.05	26.60	0.02	7.60
51.253	18.05	26.60	0.04	7.62
51.282	18.05	26.60	0.04	7.62
51.312	18.07	26.62	0.04	7.62
51.342	18.07	26.62	0.10	7.68
51.372	18.07	26.62	0.10	7.68
51.401	18.10	26.65	0.10	7.68
51.431	18.10	26.65	-0.00	7.58
51.461	18.10	26.65	-0.00	7.58
51.491	18.09	26.64	-0.00	7.58
51.520	18.09	26.64	0.10	7.68
51.550	18.09	26.64	0.10	7.68
51.580	17.84	26.39	0.10	7.68
51.610	17.84	26.39	0.03	7.61
51.639	17.84	26.39	0.03	7.61
51.669	18.06	26.62	0.03	7.61
51.699	18.06	26.62	0.04	7.63
51.729	18.06	26.62	0.04	7.63
51.759	18.04	26.59	0.04	7.63
51.788	18.04	26.59	0.10	7.68
51.818	18.04	26.59	0.10	7.68
51.848	18.04	26.60	0.10	7.68
51.878	18.04	26.60	-0.00	7.58
51.907	18.04	26.60	-0.00	7.58
51.937	17.99	26.55	-0.00	7.58
51.967	17.99	26.55	0.10	7.68
51.997	17.99	26.55	0.10	7.68
52.026	17.97	26.53	0.10	7.68
52.056	17.97	26.53	0.03	7.61
52.086	17.97	26.53	0.03	7.61
52.116	18.09	26.65	0.03	7.61
52.145	18.09	26.65	0.04	7.62
52.175	18.09	26.65	0.04	7.62
52.205	18.13	26.68	0.04	7.62
52.235	18.13	26.68	0.11	7.69
52.265	18.13	26.68	0.11	7.69
52.294	18.10	26.66	0.11	7.69
52.324	18.10	26.66	-0.00	7.58
52.354	18.10	26.66	-0.00	7.58
52.384	17.97	26.53	-0.00	7.58
52.413	17.97	26.53	0.09	7.67
52.443	17.97	26.53	0.09	7.67
52.473	17.89	26.44	0.09	7.67
52.503	17.89	26.44	0.03	7.61
52.532	17.89	26.44	0.03	7.61
52.562	18.01	26.57	0.03	7.61
52.592	18.01	26.57	0.04	7.62
52.622	18.01	26.57	0.04	7.62
52.651	18.03	26.59	0.04	7.62
52.681	18.03	26.59	0.11	7.69
52.711	18.03	26.59	0.11	7.69
52.741	17.95	26.51	0.11	7.69
52.770	17.95	26.51	0.00	7.58
52.800	17.95	26.51	0.00	7.58
52.830	17.87	26.43	0.00	7.58
52.860	17.87	26.43	0.10	7.68
52.889	17.87	26.43	0.10	7.68
52.919	18.02	26.58	0.10	7.68
52.949	18.02	26.58	0.03	7.61
52.979	18.02	26.58	0.03	7.61
53.008	17.99	26.54	0.03	7.61
53.038	17.99	26.54	0.04	7.62
53.068	17.99	26.54	0.04	7.62
53.098	17.98	26.54	0.04	7.62
53.128	17.98	26.54	0.10	7.69
53.157	17.98	26.54	0.10	7.69
53.187	17.87	26.43	0.10	7.69
53.217	17.87	26.43	-0.01	7.57
53.247	17.87	26.43	-0.01	7.57
53.276	17.77	26.33	-0.01	7.57
53.306	17.77	26.33	0.10	7.68
53.336	17.77	26.33	0.10	7.68
53.366	17.74	26.29	0.10	7.68
53.395	17.74	26.29	0.03	7.61
53.425	17.74	26.29	0.03	7.61
53.455	17.71	26.27	0.03	7.61
53.485	17.71	26.27	0.03	7.61
53.514	17.71	26.27	0.03	7.61
53.544	17.82	26.37	0.03	7.61
53.574	17.82	26.37	0.11	7.69
53.604	17.82	26.37	0.11	7.69
53.633	17.86	26.42	0.11	7.69
53.663	17.86	26.42	-0.00	7.58
53.693	17.86	26.42	-0.00	7.58
53.723	17.83	26.38	-0.00	7.58
53.753	17.83	26.38	0.09	7.67
53.782	17.83	26.38	0.09	7.67
53.812	17.91	26.47	0.09	7.67
53.842	17.91	26.47	0.03	7.61
53.872	17.91	26.47	0.03	7.61
53.901	17.86	26.41	0.03	7.61
53.931	17.86	26.41	0.03	7.61
53.961	17.86	26.41	0.03	7.61
53.991	17.97	26.53	0.03	7.61
54.020	17.97	26.53	0.10	7.69
54.050	17.97	26.53	0.10	7.69
54.080	18.07	26.62	0.10	7.69
54.110	18.07	26.62	-0.01	7.58
54.139	18.07	26.62	-0.01	7.58
54.169	18.02	26.58	-0.01	7.58
54.199	18.02	26.58	0.09	7.67
54.229	18.02	26.58	0.09	7.67
54.259	18.06	26.61	0.09	7.67
54.288	18.06	26.61	0.03	7.61
54.318	18.06	26.61	0.03	7.61
54.348	17.98	26.53	0.03	7.61
54.378	17.98	26.53	0.03	7.61
54.407	17.98	26.53	0.03	7.61
54.437	17.96	26.51	0.03	7.61
54.467	17.96	26.51	0.11	7.69
54.497	17.96	26.51	0.11	7.69
54.526	17.94	26.49	0.11	7.69
54.556	17.94	26.49	-0.00	7.58
54.586	17.94	26.49	-0.00	7.58
54.616	17.96	26.51	-0.00	7.58
54.645	17.96	26.51	0.09	7.67
54.675	17.96	26.51	0.09	7.67
54.705	17.91	26.47	0.09	7.67
54.735	17.91	26.47	0.03	7.61
54.764	17.91	26.47	0.03	7.61
54.794	17.93	26.48	0.03	7.61
54.824	17.93	26.48	0.03	7.61
54.854	17.93	26.48	0.03	7.61
54.884	17.88	26.43	0.03	7.61
54.913	17.88	26.43	0.11	7.69
54.943	17.88	26.43	0.11	7.69
54.973	17.86	26.42	0.11	7.69
55.003	17.86	26.42	-0.00	7.58
55.032	17.86	26.42	-0.00	7.58
55.062	17.89	26.44	-0.00	7.58
55.092	17.89	26.44	0.09	7.67
55.122	17.89	26.44	0.09	7.67
55.151	17.82	26.37	0.09	7.67
55.181	17.82	26.37	0.03	7.61
55.211	17.82	26.37	0.03	7.61
55.241	17.83	26.38	0.03	7.61
55.270	17.83	26.38	0.02	7.60
55.300	17.83	26.38	0.02	7.60
55.330	17.72	26.27	0.02	7.60
55.360	17.72	26.27	0.11	7.69
55.390	17.72	26.27	0.11	7.69
55.419	17.84	26.40	0.11	7.69
55.449	17.84	26.40	-0.00	7.58
55.479	17.84	26.40	-0.00	7.58
55.509	17.82	26.37	-0.00	7.58
55.538	17.82	26.37	0.09	7.67
55.568	17.82	26.37	0.09	7.67
55.598	17.87	26.42	0.09	7.67
55.628	17.87	26.42	0.04	7.62
55.657	17.87	26.42	0.04	7.62
55.687	17.85	26.41	0.04	7.62
55.717	17.85	26.41	0.02	7.60
55.747	17.85	26.41	0.02	7.60
55.776	17.70	26.25	0.02	7.60
55.806	17.70	26.25	0.10	7.69
55.836	17.70	26.25	0.10	7.69
55.866	17.77	26.33	0.10	7.69
55.896	17.77	26.33	0.00	7.58
55.925	17.77	26.33	0.00	7.58
55.955	17.83	26.39	0.00	7.58
55.985	17.83	26.39	0.09	7.67
56.014	17.83	26.39	0.09	7.67
56.044	17.81	26.37	0.09	7.67
56.074	17.81	26.37	0.04	7.62
56.104	17.81	26.37	0.04	7.62
56.134	17.73	26.28	0.04	7.62
56.163	17.73	26.28	0.02	7.60
56.193	17.73	26.28	0.02	7.60
56.223	18.01	26.56	0.02	7.60
56.253	18.01	26.56	0.11	7.69
56.282	18.01	26.56	0.11	7.69
56.312	17.87	26.43	0.11	7.69
56.342	17.87	26.43	0.00	7.58
56.372	17.87	26.43	0.00	7.58
56.401	17.87	26.42	0.00	7.58
56.431	17.87	26.42	0.08	7.67
56.461	17.87	26.42	0.08	7.67
56.491	17.95	26.50	0.08	7.67
56.520	17.95	26.50	0.04	7.62
56.550	17.95	26.50	0.04	7.62
56.580	17.84	26.39	0.04	7.62
56.610	17.84	26.39	0.02	7.60
56.639	17.84	26.39	0.02	7.60
56.669	17.83	26.38	0.02	7.60
56.699	17.83	26.38	0.11	7.69
56.729	17.83	26.38	0.11	7.69
56.759	17.64	26.19	0.11	7.69
56.788	17.64	26.19	0.00	7.58
56.818	17.64	26.19	0.00	7.58
56.848	17.53	26.09	0.00	7.58
56.878	17.53	26.09	0.09	7.67
56.907	17.53	26.09	0.09	7.67
56.937	17.43	25.98	0.09	7.67
56.967	17.43	25.98	0.04	7.62
56.997	17.43	25.98	0.04	7.62
57.026	17.54	26.09	0.04	7.62
57.056	17.54	26.09	0.01	7.60
57.086	17.54	26.09	0.01	7.60
57.116	17.49	26.04	0.01	7.60
57.145	17.49	26.04	0.11	7.69
57.175	17.49	26.04	0.11	7.69
57.205	17.57	26.12	0.11	7.69
57.235	17.57	26.12	0.00	7.58
57.264	17.57	26.12	0.00	7.58
57.294	17.42	25.97	0.00	7.58
57.324	17.42	25.97	0.09	7.67
57.354	17.42	25.97	0.09	7.67
57.383	17.52	26.08	0.09	7.67
57.413	17.52	26.08	0.04	7.63
57.443	17.52	26.08	0.04	7.63
57.473	17.46	26.01	0.04	7.63
57.503	17.46	26.01	0.01	7.59
57.532	17.46	26.01	0.01	7.59
57.562	17.43	25.98	0.01	7.59
57.592	17.43	25.98	0.11	7.69
57.622	17.43	25.98	0.11	7.69
57.651	17.42	25.98	0.11	7.69
57.681	17.42	25.98	-0.00	7.58
57.711	17.42	25.98	-0.00	7.58
57.741	17.35	25.91	-0.00	7.58
57.770	17.35	25.91	0.09	7.67
57.800	17.35	25.91	0.09	7.67
57.830	17.43	25.98	0.09	7.67
57.860	17.43	25.98	0.04	7.63
57.889	17.43	25.98	0.04	7.63
57.919	17.26	25.82	0.04	7.63
57.949	17.26	25.82	0.01	7.59
57.979	17.26	25.82	0.01	7.59
58.009	17.29	25.84	0.01	7.59
58.038	17.29	25.84	0.11	7.69
58.068	17.29	25.84	0.11	7.69
58.098	17.23	25.78	0.11	7.69
58.128	17.23	25.78	0.00	7.59
58.157	17.23	25.78	0.00	7.59
58.187	17.43	25.98	0.00	7.59
58.217	17.43	25.98	0.09	7.67
58.247	17.43	25.98	0.09	7.67
58.276	17.41	25.97	0.09	7.67
58.306	17.41	25.97	0.05	7.63
58.336	17.41	25.97	0.05	7.63
58.366	17.45	26.01	0.05	7.63
58.395	17.45	26.01	0.00	7.58
58.425	17.45	26.01	0.00	7.58
58.455	17.41	25.96	0.00	7.58
58.485	17.41	25.96	0.11	7.69
58.514	17.41	25.96	0.11	7.69
58.544	17.47	26.02	0.11	7.69
58.574	17.47	26.02	0.00	7.59
58.604	17.47	26.02	0.00	7.59
58.634	17.26	25.82	0.00	7.59
58.663	17.26	25.82	0.09	7.67
58.693	17.26	25.82	0.09	7.67
58.723	17.39	25.94	0.09	7.67
58.753	17.39	25.94	0.05	7.63
58.782	17.39	25.94	0.05	7.63
58.812	17.18	25.73	0.05	7.63
58.842	17.18	25.73	0.01	7.59
58.872	17.18	25.73	0.01	7.59
58.901	17.33	25.88	0.01	7.59
58.931	17.33	25.88	0.11	7.69
58.961	17.33	25.88	0.11	7.69
58.991	17.29	25.84	0.11	7.69
59.020	17.29	25.84	0.00	7.59
59.050	17.29	25.84	0.00	7.59
59.080	17.29	25.84	0.00	7.59
59.110	17.29	25.84	0.08	7.67
59.140	17.29	25.84	0.08	7.67
59.169	17.33	25.88	0.08	7.67
59.199	17.33	25.88	0.05	7.63
59.229	17.33	25.88	0.05	7.63
59.259	17.34	25.89	0.05	7.63
59.288	17.34	25.89	0.00	7.58
59.318	17.34	25.89	0.00	7.58
59.348	17.32	25.87	0.00	7.58
59.378	17.32	25.87	0.11	7.69
59.407	17.32	25.87	0.11	7.69
59.437	17.52	26.07	0.11	7.69
59.467	17.52	26.07	0.01	7.59
59.497	17.52	26.07	0.01	7.59
59.526	17.62	26.18	0.01	7.59
59.556	17.62	26.18	0.09	7.67
59.586	17.62	26.18	0.09	7.67
59.616	17.65	26.20	0.09	7.67
59.645	17.65	26.20	0.05	7.63
59.675	17.65	26.20	0.05	7.63
59.705	17.24	25.79	0.05	7.63
59.735	17.24	25.79	0.00	7.58
59.764	17.24	25.79	0.00	7.58
59.794	17.28	25.84	0.00	7.58
59.824	17.28	25.84	0.10	7.68
59.854	17.28	25.84	0.10	7.68
59.883	17.47	26.02	0.10	7.68
59.913	17.47	26.02	0.00	7.59
59.943	17.47	26.02	0.00	7.59
59.973	17.45	26.00	0.00	7.59
60.002	17.45	26.00	0.08	7.66
60.032	17.45	26.00	0.08	7.66
60.062	17.26	25.81	0.08	7.66
60.092	17.26	25.81	0.06	7.64
60.121	17.26	25.81	0.06	7.64
60.151	17.32	25.88	0.06	7.64
60.181	17.32	25.88	0.00	7.58
60.211	17.32	25.88	0.00	7.58
60.240	17.41	25.96	0.00	7.58
60.270	17.41	25.96	0.11	7.69
60.300	17.41	25.96	0.11	7.69
60.330	17.41	25.97	0.11	7.69
60.359	17.41	25.97	0.01	7.59
60.389	17.41	25.97	0.01	7.59
60.419	17.49	26.04	0.01	7.59
60.449	17.49	26.04	0.08	7.66
60.479	17.49	26.04	0.08	7.66
60.508	17.56	26.11	0.08	7.66
60.538	17.56	26.11	0.06	7.64
60.568	17.56	26.11	0.06	7.64
60.598	17.53	26.08	0.06	7.64
60.627	17.53	26.08	0.00	7.58
60.657	17.53	26.08	0.00	7.58
60.687	17.40	25.96	0.00	7.58
60.717	17.40	25.96	0.11	7.69
60.746	17.40	25.96	0.11	7.69
60.776	17.45	26.00	0.11	7.69
60.806	17.45	26.00	0.01	7.59
60.836	17.45	26.00	0.01	7.59
60.865	17.73	26.29	0.01	7.59
60.895	17.73	26.29	0.08	7.66
60.925	17.73	26.29	0.08	7.66
60.955	17.62	26.18	0.08	7.66
60.985	17.62	26.18	0.06	7.65
61.014	17.62	26.18	0.06	7.65
61.044	17.68	26.23	0.06	7.65
61.074	17.68	26.23	-0.00	7.58
61.104	17.68	26.23	-0.00	7.58
61.133	17.68	26.23	-0.00	7.58
61.163	17.68	26.23	0.11	7.69
61.193	17.68	26.23	0.11	7.69
61.223	17.62	26.17	0.11	7.69
61.252	17.62	26.17	0.01	7.59
61.282	17.62	26.17	0.01	7.59
61.312	17.59	26.14	0.01	7.59
61.342	17.59	26.14	0.08	7.66
61.371	17.59	26.14	0.08	7.66
61.401	17.56	26.12	0.08	7.66
61.431	17.56	26.12	0.07	7.65
61.461	17.56	26.12	0.07	7.65
61.490	17.57	26.12	0.07	7.65
61.520	17.57	26.12	0.00	7.58
61.550	17.57	26.12	0.00	7.58
61.580	17.63	26.19	0.00	7.58
61.609	17.63	26.19	0.11	7.69
61.639	17.63	26.19	0.11	7.69
61.669	17.76	26.31	0.11	7.69
61.699	17.76	26.31	0.01	7.59
61.728	17.76	26.31	0.01	7.59
61.758	17.67	26.22	0.01	7.59
61.788	17.67	26.22	0.08	7.66
61.818	17.67	26.22	0.08	7.66
61.848	17.64	26.19	0.08	7.66
61.877	17.64	26.19	0.07	7.65
61.907	17.64	26.19	0.07	7.65
61.937	17.93	26.49	0.07	7.65
61.967	17.93	26.49	0.00	7.58
61.996	17.93	26.49	0.00	7.58
62.026	17.65	26.20	0.00	7.58
62.056	17.65	26.20	0.11	7.69
62.086	17.65	26.20	0.11	7.69
62.115	17.64	26.19	0.11	7.69
62.145	17.64	26.19	0.01	7.59
62.175	17.64	26.19	0.01	7.59
62.205	17.59	26.14	0.01	7.59
62.234	17.59	26.14	0.07	7.65
62.264	17.59	26.14	0.07	7.65
62.294	17.66	26.21	0.07	7.65
62.324	17.66	26.21	0.07	7.65
62.353	17.66	26.21	0.07	7.65
62.383	17.77	26.32	0.07	7.65
62.413	17.77	26.32	0.00	7.58
62.443	17.77	26.32	0.00	7.58
62.472	17.41	25.96	0.00	7.58
62.502	17.41	25.96	0.11	7.69
62.532	17.41	25.96	0.11	7.69
62.562	17.41	25.97	0.11	7.69
62.591	17.41	25.97	0.01	7.60
62.621	17.41	25.97	0.01	7.60
62.651	17.41	25.96	0.01	7.60
62.681	17.41	25.96	0.08	7.66
62.710	17.41	25.96	0.08	7.66
62.740	17.23	25.78	0.08	7.66
62.770	17.23	25.78	0.08	7.66
62.800	17.23	25.78	0.08	7.66
62.829	17.40	25.96	0.08	7.66
62.859	17.40	25.96	0.00	7.58
62.889	17.40	25.96	0.00	7.58
62.919	17.46	26.02	0.00	7.58
62.948	17.46	26.02	0.11	7.69
62.978	17.46	26.02	0.11	7.69
63.008	17.46	26.01	0.11	7.69
63.038	17.46	26.01	0.01	7.59
63.067	17.46	26.01	0.01	7.59
63.097	17.54	26.10	0.01	7.59
63.127	17.54	26.10	0.07	7.65
63.157	17.54	26.10	0.07	7.65
63.187	17.54	26.09	0.07	7.65
63.216	17.54	26.09	0.08	7.66
63.246	17.54	26.09	0.08	7.66
63.276	17.94	26.49	0.08	7.66
63.306	17.94	26.49	-0.00	7.58
63.335	17.94	26.49	-0.00	7.58
63.365	17.38	25.93	-0.00	7.58
63.395	17.38	25.93	0.11	7.69
63.425	17.38	25.93	0.11	7.69
63.454	17.29	25.84	0.11	7.69
63.484	17.29	25.84	0.01	7.60
63.514	17.29	25.84	0.01	7.60
63.544	15.39	23.94	0.01	7.60
63.573	15.39	23.94	0.07	7.65
63.603	15.39	23.94	0.07	7.65
63.633	2.29	10.85	0.07	7.65
63.663	2.29	10.85	0.08	7.66
63.692	2.29	10.85	0.08	7.66
63.722	-4.43	4.13	0.08	7.66
63.752	-4.43	4.13	-0.00	7.58
63.782	-4.43	4.13	-0.00	7.58
63.812	-1.55	7.00	-0.00	7.58
63.841	-1.55	7.00	0.10	7.69
63.871	-1.55	7.00	0.10	7.69
63.901	1.14	9.70	0.10	7.69
63.931	1.14	9.70	0.01	7.60
63.960	1.14	9.70	0.01	7.60
63.990	2.45	11.01	0.01	7.60
64.020	2.45	11.01	0.06	7.64
64.050	2.45	11.01	0.06	7.64
64.080	0.88	9.44	0.06	7.64
64.109	0.88	9.44	0.08	7.67
64.139	0.88	9.44	0.08	7.67
64.169	-0.85	7.71	0.08	7.67
64.199	-0.85	7.71	-0.00	7.58
64.228	-0.85	7.71	-0.00	7.58
64.258	-0.27	8.29	-0.00	7.58
64.288	-0.27	8.29	0.11	7.69
64.318	-0.27	8.29	0.11	7.69
64.348	0.67	9.23	0.11	7.69
64.377	0.67	9.23	0.01	7.59
64.407	0.67	9.23	0.01	7.59
64.437	1.02	9.58	0.01	7.59
64.467	1.02	9.58	0.06	7.64
64.496	1.02	9.58	0.06	7.64
64.526	0.56	9.12	0.06	7.64
64.556	0.56	9.12	0.09	7.67
64.586	0.56	9.12	0.09	7.67
64.616	-0.04	8.52	0.09	7.67
64.645	-0.04	8.52	-0.00	7.58
64.675	-0.04	8.52	-0.00	7.58
64.705	0.06	8.62	-0.00	7.58
64.735	0.06	8.62	0.10	7.69
64.764	0.06	8.62	0.10	7.69
64.794	0.43	8.99	0.10	7.69
64.824	0.43	8.99	0.01	7.59
64.854	0.43	8.99	0.01	7.59
64.884	0.57	9.12	0.01	7.59
64.913	0.57	9.12	0.06	7.64
64.943	0.57	9.12	0.06	7.64
64.973	0.44	9.00	0.06	7.64
65.003	0.44	9.00	0.09	7.67
65.032	0.44	9.00	0.09	7.67
65.062	0.21	8.77	0.09	7.67
65.092	0.21	8.77	-0.00	7.58
65.122	0.21	8.77	-0.00	7.58
65.152	0.25	8.80	-0.00	7.58
65.181	0.25	8.80	0.10	7.69
65.211	0.25	8.80	0.10	7.69
65.241	0.34	8.90	0.10	7.69
65.271	0.34	8.90	0.01	7.60
65.300	0.34	8.90	0.01	7.60
65.330	0.40	8.95	0.01	7.60
65.360	0.40	8.95	0.06	7.64
65.390	0.40	8.95	0.06	7.64
65.420	0.39	8.95	0.06	7.64
65.449	0.39	8.95	0.09	7.68
65.479	0.39	8.95	0.09	7.68
65.509	0.29	8.85	0.09	7.68
65.539	0.29	8.85	-0.00	7.58
65.568	0.29	8.85	-0.00	7.58
65.598	0.32	8.88	-0.00	7.58
65.628	0.32	8.88	0.10	7.68
65.658	0.32	8.88	0.10	7.68
65.688	0.34	8.89	0.10	7.68
65.717	0.34	8.89	0.02	7.60
65.747	0.34	8.89	0.02	7.60
65.777	0.37	8.92	0.02	7.60
65.807	0.37	8.92	0.05	7.64
65.836	0.37	8.92	0.05	7.64
65.866	0.39	8.94	0.05	7.64
65.896	0.39	8.94	0.10	7.68
65.926	0.39	8.94	0.10	7.68
65.956	0.35	8.90	0.10	7.68
65.985	0.35	8.90	-0.00	7.58
66.015	0.35	8.90	-0.00	7.58
66.045	0.38	8.93	-0.00	7.58
66.075	0.38	8.93	0.10	7.68
66.105	0.38	8.93	0.10	7.68
66.134	0.35	8.90	0.10	7.68
66.164	0.35	8.90	0.02	7.60
66.194	0.35	8.90	0.02	7.60
66.224	0.34	8.90	0.02	7.60
66.253	0.34	8.90	0.05	7.63
66.283	0.34	8.90	0.05	7.63
66.313	0.35	8.91	0.05	7.63
66.343	0.35	8.91	0.10	7.68
66.373	0.35	8.91	0.10	7.68
66.402	0.33	8.88	0.10	7.68
66.432	0.33	8.88	-0.00	7.58
66.462	0.33	8.88	-0.00	7.58
66.492	0.36	8.92	-0.00	7.58
66.521	0.36	8.92	0.10	7.68
66.551	0.36	8.92	0.10	7.68
66.581	0.33	8.88	0.10	7.68
66.611	0.33	8.88	0.02	7.60
66.641	0.33	8.88	0.02	7.60
66.670	0.34	8.90	0.02	7.60
66.700	0.34	8.90	0.04	7.62
66.730	0.34	8.90	0.04	7.62
66.760	0.36	8.92	0.04	7.62
66.789	0.36	8.92	0.10	7.68
66.819	0.36	8.92	0.10	7.68
66.849	0.33	8.89	0.10	7.68
66.879	0.33	8.89	-0.00	7.58
66.909	0.33	8.89	-0.00	7.58
66.938	0.35	8.90	-0.00	7.58
66.968	0.35	8.90	0.10	7.68
66.998	0.35	8.90	0.10	7.68
67.028	0.35	8.90	0.10	7.68
67.057	0.35	8.90	0.02	7.60
67.087	0.35	8.90	0.02	7.60
67.117	0.33	8.88	0.02	7.60
67.147	0.33	8.88	0.04	7.62
67.177	0.33	8.88	0.04	7.62
67.206	0.35	8.91	0.04	7.62
67.236	0.35	8.91	0.10	7.68
67.266	0.35	8.91	0.10	7.68
67.296	0.29	8.85	0.10	7.68
67.325	0.29	8.85	-0.01	7.58
67.355	0.29	8.85	-0.01	7.58
67.385	0.20	8.75	-0.01	7.58
67.415	0.20	8.75	0.09	7.67
67.445	0.20	8.75	0.09	7.67
67.474	0.49	9.04	0.09	7.67
67.504	0.49	9.04	0.02	7.60
67.534	0.49	9.04	0.02	7.60
67.564	0.29	8.85	0.02	7.60
67.593	0.29	8.85	0.04	7.62
67.623	0.29	8.85	0.04	7.62
67.653	0.30	8.86	0.04	7.62
67.683	0.30	8.86	0.10	7.68
67.713	0.30	8.86	0.10	7.68
67.742	0.23	8.78	0.10	7.68
67.772	0.23	8.78	-0.01	7.57
67.802	0.23	8.78	-0.01	7.57
67.832	0.27	8.82	-0.01	7.57
67.861	0.27	8.82	0.09	7.67
67.891	0.27	8.82	0.09	7.67
67.921	0.18	8.74	0.09	7.67
67.951	0.18	8.74	0.03	7.61
67.981	0.18	8.74	0.03	7.61
68.010	0.22	8.78	0.03	7.61
68.040	0.22	8.78	0.03	7.62
68.070	0.22	8.78	0.03	7.62
68.100	0.33	8.89	0.03	7.62
68.129	0.33	8.89	0.10	7.68
68.159	0.33	8.89	0.10	7.68
68.189	0.20	8.75	0.10	7.68
68.219	0.20	8.75	-0.01	7.57
68.249	0.20	8.75	-0.01	7.57
68.278	0.25	8.81	-0.01	7.57
68.308	0.25	8.81	0.09	7.67
68.338	0.25	8.81	0.09	7.67
68.368	0.25	8.80	0.09	7.67
68.397	0.25	8.80	0.03	7.61
68.427	0.25	8.80	0.03	7.61
68.457	0.15	8.71	0.03	7.61
68.487	0.15	8.71	0.03	7.61
68.516	0.15	8.71	0.03	7.61
68.546	0.27	8.83	0.03	7.61
68.576	0.27	8.83	0.10	7.69
68.606	0.27	8.83	0.10	7.69
68.636	0.27	8.83	0.10	7.69
68.665	0.27	8.83	-0.01	7.57
68.695	0.27	8.83	-0.01	7.57
68.725	0.29	8.84	-0.01	7.57
68.755	0.29	8.84	0.09	7.67
68.784	0.29	8.84	0.09	7.67
68.814	0.28	8.84	0.09	7.67
68.844	0.28	8.84	0.03	7.61
68.874	0.28	8.84	0.03	7.61
68.904	0.26	8.81	0.03	7.61
68.933	0.26	8.81	0.03	7.61
68.963	0.26	8.81	0.03	7.61
68.993	0.27	8.83	0.03	7.61
69.023	0.27	8.83	0.10	7.68
69.052	0.27	8.83	0.10	7.68
69.082	0.24	8.79	0.10	7.68
69.112	0.24	8.79	-0.00	7.58
69.142	0.24	8.79	-0.00	7.58
69.172	0.26	8.81	-0.00	7.58
69.201	0.26	8.81	0.09	7.67
69.231	0.26	8.81	0.09	7.67
69.261	0.25	8.80	0.09	7.67
69.291	0.25	8.80	0.03	7.61
69.320	0.25	8.80	0.03	7.61
69.350	0.23	8.78	0.03	7.61
69.380	0.23	8.78	0.02	7.60
69.410	0.23	8.78	0.02	7.60
69.440	0.27	8.82	0.02	7.60
69.469	0.27	8.82	0.10	7.69
69.499	0.27	8.82	0.10	7.69
69.529	0.23	8.78	0.10	7.69
69.559	0.23	8.78	-0.00	7.58
69.588	0.23	8.78	-0.00	7.58
69.618	0.24	8.79	-0.00	7.58
69.648	0.24	8.79	0.09	7.67
69.678	0.24	8.79	0.09	7.67
69.708	0.24	8.79	0.09	7.67
69.737	0.24	8.79	0.03	7.62
69.767	0.24	8.79	0.03	7.62
69.797	0.21	8.76	0.03	7.62
69.827	0.21	8.76	0.02	7.60
69.856	0.21	8.76	0.02	7.60
69.886	0.23	8.79	0.02	7.60
69.916	0.23	8.79	0.11	7.69
69.946	0.23	8.79	0.11	7.69
69.976	0.18	8.74	0.11	7.69
70.005	0.18	8.74	-0.01	7.58
70.035	0.18	8.74	-0.01	7.58
70.065	0.18	8.73	-0.01	7.58
