Tempo(s)    P0(KPa) P0+Coluna(KPa)  P1(KPa) P1+Coluna(KPa)  Vazao(L/min)    Pulsos
0.000	-0.02	7.67	-0.02	7.63	0.000	0
0.032	-0.01	7.67	0.02	7.67	0.000	0
0.064	-0.03	7.66	-0.02	7.63	0.000	0
0.096	0.03	7.72	0.01	7.65	0.000	0
0.128	-0.02	7.66	-0.00	7.64	0.000	0
0.160	0.01	7.69	-0.00	7.64	0.000	0
0.192	0.00	7.69	0.01	7.66	0.000	0
0.224	0.01	7.69	-0.02	7.63	0.000	0
0.256	0.00	7.68	0.01	7.65	0.000	0
0.288	-0.01	7.68	-0.01	7.63	0.000	0
0.320	-0.01	7.67	-0.00	7.65	0.000	0
0.352	0.00	7.69	0.02	7.66	0.000	0
0.384	-0.03	7.66	-0.02	7.63	0.000	0
0.416	0.02	7.70	0.01	7.65	0.000	0
0.448	-0.00	7.68	-0.01	7.64	0.000	0
0.480	0.01	7.69	0.00	7.65	0.000	0
0.512	-0.02	7.67	0.02	7.66	0.000	0
0.544	-0.00	7.68	-0.02	7.63	0.000	0
0.576	-0.02	7.67	0.01	7.65	0.000	0
0.608	0.00	7.68	-0.02	7.63	0.000	0
0.640	0.00	7.68	-0.00	7.65	0.000	0
0.672	0.00	7.69	0.01	7.66	0.000	0
0.704	-0.00	7.68	-0.01	7.63	0.000	0
0.736	-0.02	7.67	0.00	7.65	0.000	0
0.768	-0.00	7.68	-0.01	7.64	0.000	0
0.800	-0.02	7.67	0.01	7.65	0.000	0
0.832	0.01	7.69	0.01	7.66	0.000	0
0.864	-0.01	7.67	-0.02	7.63	0.000	0
0.896	-0.00	7.68	0.01	7.65	0.000	0
0.928	-0.02	7.66	-0.01	7.64	0.000	0
0.960	-0.00	7.68	0.00	7.65	0.000	0
0.992	-0.01	7.67	0.01	7.66	0.000	0
1.024	0.01	7.69	-0.01	7.63	0.000	0
1.056	-0.00	7.68	0.01	7.65	0.000	0
1.088	0.01	7.70	-0.01	7.63	0.000	0
1.120	-0.02	7.66	0.01	7.65	0.000	0
1.152	-0.04	7.64	0.01	7.66	0.000	0
1.184	-0.00	7.68	-0.02	7.63	0.000	0
1.216	-0.02	7.66	0.01	7.65	0.000	0
1.248	0.02	7.70	-0.01	7.63	0.000	0
1.280	-0.03	7.65	0.01	7.65	0.000	0
1.312	0.02	7.71	0.01	7.66	0.000	0
1.344	-0.05	7.63	-0.01	7.64	0.000	0
1.376	0.01	7.69	0.01	7.65	0.000	0
1.408	-0.03	7.65	-0.01	7.63	0.000	0
1.440	0.01	7.70	0.01	7.66	0.000	0
1.472	-0.05	7.64	0.01	7.65	0.000	0
1.504	0.01	7.69	-0.01	7.63	0.000	0
1.536	-0.03	7.65	0.00	7.65	0.000	0
1.568	-0.02	7.67	-0.02	7.62	0.000	0
1.600	0.01	7.69	0.01	7.66	0.000	0
1.632	-0.02	7.67	0.01	7.65	0.000	0
1.664	-0.00	7.68	-0.01	7.64	0.000	0
1.696	-0.01	7.67	0.00	7.65	0.000	0
1.728	-0.02	7.67	-0.02	7.63	0.000	0
1.760	-0.01	7.67	0.01	7.66	0.000	0
1.792	-0.00	7.68	0.00	7.65	0.000	0
1.824	-0.00	7.68	-0.00	7.64	0.000	0
1.856	-0.02	7.67	0.00	7.65	0.000	0
1.888	-0.01	7.67	-0.02	7.62	0.000	0
1.920	-0.00	7.68	0.01	7.66	0.000	0
1.952	-0.04	7.64	-0.00	7.64	0.000	0
1.984	-0.00	7.68	-0.01	7.64	0.000	0
2.016	-0.01	7.67	0.00	7.65	0.000	0
2.048	-0.01	7.67	-0.02	7.62	0.000	0
2.080	-0.02	7.67	0.02	7.67	0.000	0
2.112	-0.03	7.65	-0.01	7.64	0.000	0
2.144	-0.01	7.67	-0.00	7.64	0.000	0
2.176	-0.01	7.67	-0.00	7.64	0.000	0
2.208	-0.01	7.68	-0.02	7.63	0.000	0
2.240	-0.01	7.67	0.01	7.66	0.000	0
2.272	-0.02	7.66	-0.01	7.64	0.000	0
2.304	-0.02	7.66	-0.00	7.64	0.000	0
2.336	-0.01	7.67	-0.00	7.64	0.000	0
2.368	-0.03	7.65	-0.02	7.63	0.000	0
2.400	-0.00	7.68	0.02	7.67	0.000	0
2.432	12.01	19.69	13.45	21.10	0.000	0
2.464	9.96	17.64	17.29	24.94	0.000	0
2.496	19.92	27.60	17.09	24.74	0.000	0
2.528	19.29	26.97	16.51	24.15	0.000	0
2.560	19.11	26.79	16.58	24.23	0.000	0
2.592	17.80	25.48	16.57	24.22	0.000	0
2.624	15.16	22.84	16.56	24.21	0.431	94
2.656	14.56	22.25	14.22	21.87	0.431	94
2.688	14.68	22.36	12.60	20.24	0.431	94
2.720	14.75	22.44	12.44	20.08	0.431	94
2.752	16.49	24.18	14.12	21.77	0.431	94
2.784	18.68	26.37	16.59	24.24	0.431	94
2.816	19.11	26.80	16.56	24.20	0.431	94
2.848	19.05	26.73	16.56	24.20	0.431	94
2.880	18.67	26.35	16.63	24.28	0.431	94
2.912	16.27	23.95	16.71	24.35	0.431	94
2.944	14.58	22.26	15.49	23.14	0.431	94
2.976	14.49	22.17	12.80	20.45	0.431	94
3.008	14.35	22.04	12.44	20.08	0.431	94
3.040	15.47	23.15	12.91	20.56	0.431	94
3.072	17.64	25.32	15.25	22.90	0.431	94
3.104	18.89	26.57	16.78	24.42	1.239	270
3.136	19.05	26.73	16.55	24.20	1.239	270
3.168	19.10	26.78	16.74	24.39	1.239	270
3.200	19.18	26.86	16.89	24.54	1.239	270
3.232	18.71	26.39	16.71	24.36	1.239	270
3.264	16.01	23.69	16.69	24.34	1.239	270
3.296	14.57	22.26	14.77	22.42	1.239	270
3.328	14.75	22.44	13.08	20.73	1.239	270
3.360	14.63	22.32	13.23	20.88	1.239	270
3.392	16.49	24.17	14.06	21.70	1.239	270
3.424	18.45	26.13	16.08	23.73	1.239	270
3.456	18.97	26.65	16.76	24.41	1.239	270
3.488	18.99	26.68	17.00	24.64	1.239	270
3.520	19.08	26.77	16.92	24.57	1.239	270
3.552	18.58	26.27	16.93	24.58	1.243	271
3.584	16.44	24.13	16.88	24.53	1.243	271
3.616	14.68	22.36	16.33	23.98	1.243	271
3.648	14.51	22.19	13.85	21.50	1.243	271
3.680	14.52	22.20	13.26	20.91	1.243	271
3.712	15.79	23.47	13.42	21.07	1.243	271
3.744	18.27	25.95	16.37	24.02	1.243	271
3.776	19.06	26.74	17.21	24.85	1.243	271
3.808	19.06	26.75	17.45	25.09	1.243	271
3.840	19.05	26.73	17.39	25.04	1.243	271
3.872	19.00	26.68	17.22	24.87	1.243	271
3.904	17.10	24.79	17.11	24.76	1.243	271
3.936	14.51	22.19	16.25	23.90	1.243	271
3.968	14.33	22.02	14.04	21.69	1.243	271
4.000	14.37	22.06	13.55	21.19	1.243	271
4.032	14.97	22.65	13.66	21.31	1.248	272
4.064	17.17	24.85	15.08	22.73	1.248	272
4.096	18.82	26.50	17.44	25.08	1.248	272
4.128	18.98	26.66	17.55	25.19	1.248	272
4.160	19.08	26.76	17.56	25.21	1.248	272
4.192	18.70	26.39	17.47	25.12	1.248	272
4.224	16.07	23.75	17.57	25.22	1.248	272
4.256	14.26	21.95	16.63	24.27	1.248	272
4.288	14.33	22.02	14.47	22.11	1.248	272
4.320	14.51	22.19	13.79	21.43	1.248	272
4.352	15.39	23.07	13.61	21.25	1.248	272
4.384	17.39	25.07	15.55	23.20	1.248	272
4.416	18.80	26.48	17.77	25.42	1.248	272
4.448	19.13	26.82	17.88	25.53	1.248	272
4.480	19.14	26.82	17.72	25.37	1.252	273
4.512	19.12	26.80	17.61	25.26	1.252	273
4.544	18.66	26.34	17.61	25.26	1.252	273
4.576	15.41	23.09	17.72	25.37	1.252	273
4.608	14.26	21.94	15.52	23.16	1.252	273
4.640	14.54	22.23	13.76	21.40	1.252	273
4.672	14.11	21.79	13.44	21.09	1.252	273
4.704	15.30	22.98	13.55	21.19	1.252	273
4.736	17.39	25.07	15.96	23.61	1.252	273
4.768	18.58	26.27	17.50	25.15	1.252	273
4.800	18.64	26.32	17.31	24.95	1.252	273
4.832	18.72	26.40	17.48	25.12	1.252	273
4.864	18.55	26.23	17.53	25.18	1.252	273
4.896	17.60	25.28	17.40	25.04	1.252	273
4.928	14.82	22.50	17.47	25.12	1.252	273
4.960	13.96	21.64	15.26	22.90	1.257	274
4.992	13.97	21.66	13.65	21.30	1.257	274
5.024	14.12	21.80	13.70	21.35	1.257	274
5.056	15.90	23.58	14.94	22.58	1.257	274
5.088	18.09	25.77	16.93	24.58	1.257	274
5.120	18.69	26.37	17.67	25.32	1.257	274
5.152	18.58	26.26	17.71	25.35	1.257	274
5.184	18.53	26.22	17.71	25.36	1.257	274
5.216	18.54	26.22	17.75	25.40	1.257	274
5.248	18.27	25.95	17.79	25.44	1.257	274
5.280	16.30	23.98	17.78	25.43	1.257	274
5.312	13.99	21.68	16.82	24.46	1.257	274
5.344	13.81	21.49	14.29	21.93	1.257	274
5.376	13.97	21.66	13.80	21.44	1.257	274
5.408	14.48	22.17	13.88	21.53	1.257	274
5.440	16.99	24.67	15.92	23.56	1.248	272
5.472	18.43	26.11	17.68	25.33	1.248	272
5.504	18.60	26.28	17.54	25.19	1.248	272
5.536	18.65	26.33	17.64	25.28	1.248	272
5.568	18.53	26.22	17.69	25.33	1.248	272
5.600	18.29	25.97	17.57	25.22	1.248	272
5.632	15.84	23.52	17.52	25.17	1.248	272
5.664	13.59	21.27	16.84	24.48	1.248	272
5.696	13.52	21.20	15.05	22.70	1.248	272
5.728	13.74	21.42	13.91	21.56	1.248	272
5.760	14.09	21.77	13.67	21.32	1.248	272
5.792	15.73	23.41	14.80	22.45	1.248	272
5.824	17.91	25.59	17.34	24.99	1.248	272
5.856	18.61	26.29	17.77	25.42	1.248	272
5.888	18.66	26.34	17.70	25.34	1.252	273
5.920	18.63	26.31	17.64	25.29	1.252	273
5.952	18.53	26.21	17.66	25.30	1.252	273
5.984	16.65	24.34	17.73	25.38	1.252	273
6.016	14.02	21.71	17.21	24.86	1.252	273
6.048	14.02	21.70	14.43	22.07	1.252	273
6.080	13.88	21.56	13.48	21.13	1.252	273
6.112	14.01	21.69	13.58	21.22	1.252	273
6.144	15.32	23.00	14.16	21.80	1.252	273
6.176	17.57	25.25	16.30	23.95	1.252	273
6.208	18.53	26.21	17.70	25.34	1.252	273
6.240	18.59	26.27	17.67	25.32	1.252	273
6.272	18.58	26.26	17.81	25.46	1.252	273
6.304	18.54	26.22	17.68	25.33	1.252	273
6.336	16.22	23.91	17.72	25.36	1.252	273
6.368	13.77	21.45	16.76	24.41	1.252	273
6.400	13.69	21.37	14.60	22.25	1.252	273
6.432	13.69	21.37	13.86	21.51	1.252	273
6.464	14.16	21.85	13.62	21.27	1.252	273
6.496	15.75	23.43	14.42	22.07	1.252	273
6.528	17.78	25.46	16.41	24.05	1.252	273
6.560	18.67	26.35	17.93	25.58	1.252	273
6.592	18.75	26.43	17.84	25.48	1.252	273
6.624	18.73	26.42	17.78	25.43	1.252	273
6.656	18.75	26.43	17.73	25.38	1.252	273
6.688	17.76	25.44	17.83	25.48	1.252	273
6.720	14.99	22.68	17.72	25.37	1.252	273
6.752	14.17	21.86	15.24	22.88	1.252	273
6.784	14.09	21.77	13.62	21.27	1.252	273
6.816	14.08	21.76	13.64	21.29	1.252	273
6.848	14.97	22.65	13.85	21.50	1.257	274
6.880	17.43	25.11	16.20	23.85	1.257	274
6.912	18.60	26.28	17.80	25.45	1.257	274
6.944	18.67	26.36	17.76	25.41	1.257	274
6.976	18.72	26.41	17.75	25.39	1.257	274
7.008	18.74	26.42	17.79	25.44	1.257	274
7.040	18.42	26.10	17.65	25.30	1.257	274
7.072	15.45	23.13	17.59	25.24	1.257	274
7.104	14.26	21.94	15.42	23.07	1.257	274
7.136	14.32	22.00	13.85	21.50	1.257	274
7.168	14.18	21.87	13.91	21.56	1.257	274
7.200	16.15	23.83	14.76	22.40	1.257	274
7.232	18.17	25.85	16.90	24.55	1.257	274
7.264	18.73	26.42	17.85	25.50	1.257	274
7.296	18.65	26.33	17.75	25.39	1.261	275
7.328	18.68	26.37	17.71	25.36	1.261	275
7.360	18.74	26.42	17.68	25.33	1.261	275
7.392	17.76	25.44	17.79	25.44	1.261	275
7.424	15.36	23.04	17.85	25.50	1.261	275
7.456	14.18	21.87	15.92	23.56	1.261	275
7.488	14.05	21.73	13.95	21.59	1.261	275
7.520	14.16	21.85	13.95	21.59	1.261	275
7.552	15.51	23.19	14.28	21.93	1.261	275
7.584	18.08	25.77	16.82	24.47	1.261	275
7.616	18.79	26.47	17.73	25.38	1.261	275
7.648	18.72	26.40	17.74	25.38	1.261	275
7.680	18.72	26.40	17.71	25.35	1.261	275
7.712	18.66	26.34	17.82	25.47	1.261	275
7.744	16.92	24.60	17.83	25.48	1.261	275
7.776	14.36	22.05	17.47	25.12	1.257	274
7.808	13.68	21.36	15.44	23.08	1.257	274
7.840	14.02	21.70	13.79	21.43	1.257	274
7.872	14.18	21.87	13.82	21.47	1.257	274
7.904	15.71	23.40	14.57	22.22	1.257	274
7.936	18.08	25.76	17.38	25.02	1.257	274
7.968	18.76	26.44	17.60	25.25	1.257	274
8.000	18.70	26.38	17.80	25.45	1.257	274
8.032	18.75	26.43	17.76	25.41	1.257	274
8.064	18.51	26.19	17.80	25.44	1.257	274
8.096	16.50	24.19	17.76	25.40	1.257	274
8.128	14.34	22.02	17.59	25.24	1.257	274
8.160	14.10	21.78	15.05	22.69	1.257	274
8.192	14.07	21.75	13.67	21.32	1.257	274
8.224	14.08	21.76	13.38	21.02	1.257	274
8.256	15.20	22.88	13.84	21.49	1.257	274
8.288	17.47	25.15	16.27	23.92	1.257	274
8.320	18.64	26.32	17.87	25.52	1.257	274
8.352	18.64	26.32	17.71	25.35	1.257	274
8.384	18.62	26.30	17.70	25.34	1.257	274
8.416	18.51	26.19	17.80	25.45	1.257	274
8.448	16.00	23.69	17.87	25.52	1.257	274
8.480	14.02	21.70	16.86	24.50	1.257	274
8.512	13.89	21.57	14.59	22.24	1.257	274
8.544	13.77	21.45	13.78	21.42	1.257	274
8.576	14.18	21.87	14.00	21.64	1.257	274
8.608	16.13	23.82	14.68	22.33	1.257	274
8.640	18.03	25.72	16.87	24.52	1.257	274
8.672	18.74	26.42	17.78	25.43	1.257	274
8.704	18.79	26.47	17.83	25.48	1.261	275
8.736	18.81	26.49	17.86	25.51	1.261	275
8.768	18.77	26.45	17.74	25.39	1.261	275
8.800	17.43	25.12	17.72	25.36	1.261	275
8.832	14.45	22.13	17.04	24.69	1.261	275
8.864	14.42	22.10	14.51	22.16	1.261	275
8.896	14.36	22.05	13.78	21.42	1.261	275
8.928	14.59	22.27	13.71	21.36	1.261	275
8.960	16.22	23.90	14.82	22.47	1.261	275
8.992	18.19	25.87	17.07	24.72	1.261	275
9.024	18.65	26.33	17.79	25.44	1.261	275
9.056	18.71	26.39	17.82	25.46	1.261	275
9.088	18.64	26.32	17.61	25.25	1.261	275
9.120	18.64	26.33	17.76	25.41	1.261	275
9.152	16.63	24.31	17.84	25.49	1.261	275
9.184	14.15	21.83	17.22	24.87	1.257	274
9.216	13.97	21.66	14.66	22.31	1.257	274
9.248	14.17	21.86	13.93	21.58	1.257	274
9.280	15.25	22.94	13.95	21.59	1.257	274
9.312	17.83	25.51	16.48	24.12	1.257	274
9.344	18.77	26.45	17.70	25.35	1.257	274
9.376	18.90	26.58	17.75	25.39	1.257	274
9.408	18.74	26.43	17.67	25.32	1.257	274
9.440	18.73	26.42	17.77	25.42	1.257	274
9.472	17.84	25.53	17.77	25.42	1.257	274
9.504	15.34	23.02	17.74	25.38	1.257	274
9.536	13.93	21.61	16.51	24.16	1.257	274
9.568	14.09	21.77	14.04	21.69	1.257	274
9.600	14.15	21.84	13.93	21.58	1.257	274
9.632	15.03	22.72	14.01	21.66	1.266	276
9.664	17.61	25.29	16.40	24.05	1.266	276
9.696	18.76	26.44	17.69	25.34	1.266	276
9.728	18.73	26.41	17.71	25.36	1.266	276
9.760	18.72	26.40	17.93	25.57	1.266	276
9.792	18.33	26.01	17.87	25.52	1.266	276
9.824	16.08	23.77	17.78	25.43	1.266	276
9.856	14.11	21.79	16.82	24.46	1.266	276
9.888	14.07	21.75	14.24	21.88	1.266	276
9.920	13.91	21.59	13.88	21.53	1.266	276
9.952	14.47	22.15	13.76	21.40	1.266	276
9.984	16.52	24.21	15.10	22.74	1.266	276
10.016	18.52	26.20	17.60	25.24	1.266	276
10.048	18.76	26.44	17.73	25.38	1.266	276
10.080	18.88	26.56	17.69	25.34	1.266	276
10.112	18.79	26.47	17.67	25.32	1.261	275
10.144	17.89	25.57	17.76	25.40	1.261	275
10.176	15.01	22.69	17.76	25.41	1.261	275
10.208	14.35	22.04	15.57	23.22	1.261	275
10.240	14.09	21.77	13.63	21.28	1.261	275
10.272	14.37	22.06	13.91	21.56	1.261	275
10.304	15.37	23.05	14.02	21.67	1.261	275
10.336	17.85	25.53	16.23	23.88	1.261	275
10.368	18.81	26.49	17.72	25.37	1.261	275
10.400	18.93	26.62	17.85	25.49	1.261	275
10.432	18.87	26.55	17.82	25.47	1.261	275
10.464	18.91	26.59	17.66	25.31	1.261	275
10.496	17.91	25.59	17.80	25.44	1.261	275
10.528	15.02	22.70	17.72	25.37	1.261	275
10.560	14.35	22.04	15.45	23.10	1.261	275
10.592	14.20	21.88	13.77	21.41	1.266	276
10.624	14.45	22.13	13.73	21.38	1.266	276
10.656	15.80	23.48	14.16	21.80	1.266	276
10.688	17.90	25.59	16.40	24.04	1.266	276
10.720	18.99	26.67	17.73	25.38	1.266	276
10.752	19.10	26.78	17.69	25.33	1.266	276
10.784	19.04	26.73	17.77	25.42	1.266	276
10.816	19.08	26.77	17.85	25.50	1.266	276
10.848	18.69	26.37	17.79	25.44	1.266	276
10.880	16.20	23.88	17.67	25.32	1.266	276
10.912	14.40	22.08	16.31	23.96	1.266	276
10.944	14.22	21.90	14.04	21.69	1.266	276
10.976	14.50	22.18	13.86	21.51	1.266	276
11.008	15.35	23.03	13.98	21.62	1.266	276
11.040	17.78	25.46	16.03	23.68	1.271	277
11.072	18.97	26.65	17.78	25.43	1.271	277
11.104	18.98	26.66	17.75	25.40	1.271	277
11.136	18.94	26.63	17.73	25.37	1.271	277
11.168	19.02	26.70	17.65	25.29	1.271	277
11.200	17.98	25.66	17.70	25.35	1.271	277
11.232	15.76	23.45	17.79	25.44	1.271	277
11.264	14.39	22.07	16.47	24.12	1.271	277
11.296	14.37	22.06	14.02	21.66	1.271	277
11.328	14.40	22.08	13.82	21.47	1.271	277
11.360	15.03	22.71	13.75	21.39	1.271	277
11.392	17.43	25.12	15.82	23.47	1.271	277
11.424	19.03	26.72	17.62	25.27	1.271	277
11.456	19.11	26.79	17.62	25.27	1.271	277
11.488	19.08	26.76	17.83	25.48	1.271	277
11.520	19.05	26.73	17.90	25.54	1.275	278
11.552	18.74	26.42	17.87	25.52	1.275	278
11.584	16.43	24.12	17.84	25.49	1.275	278
11.616	14.42	22.10	16.71	24.36	1.275	278
11.648	13.90	21.58	15.07	22.72	1.275	278
11.680	14.26	21.94	13.97	21.61	1.275	278
11.712	14.32	22.00	13.91	21.56	1.275	278
11.744	15.47	23.15	13.87	21.52	1.275	278
11.776	17.85	25.53	16.22	23.87	1.275	278
11.808	19.13	26.81	18.04	25.68	1.275	278
11.840	19.12	26.80	18.06	25.70	1.275	278
11.872	19.22	26.90	18.07	25.72	1.275	278
11.904	19.04	26.72	18.15	25.79	1.275	278
11.936	17.47	25.15	18.03	25.68	1.275	278
11.968	15.25	22.93	17.94	25.59	1.275	278
12.000	14.38	22.07	16.11	23.76	1.266	276
12.032	14.41	22.09	13.93	21.58	1.266	276
12.064	14.15	21.84	13.80	21.44	1.266	276
12.096	14.90	22.58	14.05	21.70	1.266	276
12.128	16.77	24.45	15.46	23.11	1.266	276
12.160	18.66	26.34	17.84	25.49	1.266	276
12.192	19.17	26.85	18.05	25.70	1.266	276
12.224	19.06	26.74	18.13	25.78	1.266	276
12.256	19.09	26.77	18.15	25.79	1.266	276
12.288	18.85	26.53	18.06	25.70	1.266	276
12.320	16.23	23.92	18.03	25.68	1.266	276
12.352	14.21	21.89	17.21	24.86	1.266	276
12.384	14.12	21.80	15.15	22.79	1.266	276
12.416	14.31	21.99	14.08	21.73	1.266	276
12.448	14.37	22.06	14.13	21.78	1.271	277
12.480	15.85	23.54	14.50	22.15	1.271	277
12.512	17.91	25.59	16.61	24.26	1.271	277
12.544	18.84	26.52	17.89	25.54	1.271	277
12.576	18.77	26.45	17.97	25.62	1.271	277
12.608	18.77	26.45	17.80	25.45	1.271	277
12.640	18.76	26.45	17.81	25.46	1.271	277
12.672	16.37	24.05	17.98	25.62	1.271	277
12.704	14.21	21.89	16.44	24.09	1.271	277
12.736	14.07	21.75	14.12	21.77	1.271	277
12.768	13.73	21.41	13.85	21.50	1.271	277
12.800	14.62	22.30	13.96	21.60	1.271	277
12.832	16.67	24.35	15.53	23.18	1.271	277
12.864	18.43	26.11	17.78	25.43	1.271	277
12.896	18.81	26.49	17.75	25.39	1.271	277
12.928	18.74	26.42	17.95	25.59	1.257	274
12.960	18.86	26.54	17.88	25.53	1.257	274
12.992	18.76	26.44	17.93	25.58	1.257	274
13.024	16.70	24.38	17.84	25.49	1.257	274
13.056	14.30	21.98	16.77	24.42	1.257	274
13.088	14.28	21.96	14.30	21.95	1.257	274
13.120	14.23	21.91	13.92	21.57	1.257	274
13.152	14.75	22.43	14.01	21.66	1.257	274
13.184	16.93	24.61	15.59	23.24	1.257	274
13.216	18.46	26.14	17.55	25.20	1.257	274
13.248	18.73	26.42	18.05	25.69	1.257	274
13.280	18.81	26.49	17.80	25.45	1.257	274
13.312	18.79	26.47	17.93	25.58	1.257	274
13.344	18.38	26.06	17.94	25.58	1.257	274
13.376	16.66	24.35	17.95	25.59	1.261	275
13.408	14.51	22.19	17.11	24.76	1.261	275
13.440	14.34	22.03	14.63	22.28	1.261	275
13.472	14.30	21.98	13.93	21.58	1.261	275
13.504	14.95	22.64	14.05	21.70	1.261	275
13.536	17.33	25.02	16.15	23.80	1.261	275
13.568	18.73	26.41	18.08	25.72	1.261	275
13.600	18.76	26.44	17.97	25.62	1.261	275
13.632	18.84	26.52	17.96	25.61	1.261	275
13.664	18.86	26.54	17.98	25.63	1.261	275
13.696	18.47	26.15	17.87	25.52	1.261	275
13.728	15.56	23.24	17.87	25.52	1.261	275
13.760	14.15	21.84	16.21	23.85	1.261	275
13.792	13.95	21.63	14.06	21.70	1.261	275
13.824	14.04	21.72	14.06	21.71	1.261	275
13.856	14.82	22.50	13.93	21.58	1.261	275
13.888	17.10	24.78	15.77	23.42	1.261	275
13.920	18.70	26.38	17.89	25.54	1.261	275
13.952	18.81	26.49	17.87	25.52	1.261	275
13.984	18.89	26.57	17.99	25.64	1.261	275
14.016	18.75	26.43	17.98	25.63	1.261	275
14.048	17.22	24.90	17.81	25.45	1.261	275
14.080	14.84	22.52	17.78	25.43	1.261	275
14.112	14.15	21.84	16.05	23.69	1.261	275
14.144	14.08	21.76	13.98	21.62	1.261	275
14.176	14.01	21.69	13.90	21.55	1.261	275
14.208	15.03	22.72	13.61	21.25	1.261	275
14.240	16.91	24.59	15.66	23.31	1.261	275
14.272	18.56	26.24	17.85	25.49	1.261	275
14.304	18.87	26.55	17.91	25.56	1.261	275
14.336	18.86	26.54	17.97	25.62	1.257	274
14.368	18.84	26.52	18.02	25.67	1.257	274
14.400	18.44	26.13	18.13	25.78	1.257	274
14.432	15.46	23.14	18.10	25.75	1.257	274
14.464	14.20	21.88	16.12	23.76	1.257	274
14.496	14.16	21.85	13.92	21.57	1.257	274
14.528	14.11	21.79	14.08	21.73	1.257	274
14.560	14.90	22.58	14.15	21.79	1.257	274
14.592	17.10	24.78	15.73	23.38	1.257	274
14.624	18.76	26.44	17.66	25.31	1.257	274
14.656	18.92	26.60	18.01	25.66	1.257	274
14.688	18.92	26.60	18.04	25.68	1.257	274
14.720	19.04	26.72	18.11	25.75	1.257	274
14.752	18.83	26.52	18.10	25.74	1.257	274
14.784	16.61	24.29	18.06	25.71	1.257	274
14.816	14.47	22.15	16.98	24.63	1.257	274
14.848	14.24	21.92	14.51	22.16	1.257	274
14.880	14.24	21.92	14.11	21.76	1.257	274
14.912	14.74	22.43	14.02	21.67	1.257	274
14.944	16.48	24.16	15.26	22.91	1.257	274
14.976	18.43	26.11	17.71	25.36	1.257	274
15.008	18.93	26.61	18.01	25.66	1.257	274
15.040	19.00	26.68	17.99	25.63	1.257	274
15.072	18.86	26.54	18.18	25.83	1.257	274
15.104	18.85	26.53	18.18	25.83	1.257	274
15.136	17.43	25.11	18.17	25.82	1.257	274
15.168	14.88	22.56	17.80	25.45	1.257	274
15.200	14.64	22.32	14.82	22.47	1.257	274
15.232	14.44	22.12	14.26	21.91	1.257	274
15.264	14.99	22.67	14.31	21.96	1.261	275
15.296	16.98	24.67	16.05	23.69	1.261	275
15.328	18.75	26.44	18.17	25.82	1.261	275
15.360	18.92	26.60	18.14	25.79	1.261	275
15.392	18.89	26.57	18.13	25.78	1.261	275
15.424	18.92	26.60	18.05	25.70	1.261	275
15.456	17.55	25.23	18.03	25.68	1.261	275
15.488	14.78	22.47	17.98	25.63	1.261	275
15.520	14.13	21.81	16.20	23.84	1.261	275
15.552	14.23	21.91	14.05	21.70	1.261	275
15.584	14.38	22.07	14.06	21.71	1.261	275
15.616	15.23	22.91	14.36	22.00	1.261	275
15.648	17.78	25.47	16.98	24.62	1.261	275
15.680	18.90	26.58	18.02	25.67	1.261	275
15.712	18.95	26.63	18.14	25.79	1.261	275
15.744	18.86	26.54	18.15	25.80	1.261	275
15.776	18.84	26.53	17.99	25.64	1.261	275
15.808	17.66	25.34	17.99	25.64	1.261	275
15.840	15.01	22.69	18.10	25.74	1.261	275
15.872	14.34	22.03	15.77	23.42	1.261	275
15.904	14.08	21.76	13.89	21.54	1.261	275
15.936	13.97	21.66	13.91	21.56	1.261	275
15.968	14.72	22.40	14.11	21.76	1.261	275
16.000	16.99	24.68	15.85	23.50	1.261	275
16.032	18.62	26.30	17.99	25.64	1.261	275
16.064	18.73	26.41	17.88	25.53	1.261	275
16.096	18.78	26.46	17.90	25.55	1.261	275
16.128	18.82	26.50	18.01	25.66	1.261	275
16.160	17.08	24.76	18.03	25.68	1.261	275
16.192	14.32	22.00	17.56	25.21	1.257	274
16.224	13.87	21.55	15.34	22.99	1.257	274
16.256	13.97	21.66	14.10	21.75	1.257	274
16.288	14.46	22.14	14.07	21.72	1.257	274
16.320	16.11	23.79	15.12	22.76	1.257	274
16.352	18.18	25.86	16.86	24.51	1.257	274
16.384	18.83	26.52	17.93	25.58	1.257	274
16.416	18.67	26.35	18.18	25.83	1.257	274
16.448	18.77	26.45	18.03	25.68	1.257	274
16.480	18.76	26.44	17.92	25.57	1.257	274
16.512	16.82	24.50	18.00	25.65	1.257	274
16.544	14.33	22.02	16.93	24.58	1.257	274
16.576	14.08	21.76	14.52	22.17	1.257	274
16.608	13.86	21.54	14.19	21.84	1.257	274
16.640	14.77	22.46	13.86	21.51	1.257	274
16.672	16.75	24.43	15.38	23.03	1.257	274
16.704	18.53	26.22	17.88	25.53	1.257	274
16.736	18.74	26.43	18.06	25.71	1.257	274
16.768	18.77	26.45	18.06	25.71	1.257	274
16.800	18.67	26.35	18.03	25.67	1.257	274
16.832	18.08	25.76	17.96	25.60	1.257	274
16.864	15.00	22.69	18.05	25.69	1.257	274
16.896	14.10	21.78	15.95	23.59	1.257	274
16.928	13.98	21.67	14.11	21.76	1.257	274
16.960	14.20	21.88	14.07	21.72	1.257	274
16.992	15.82	23.50	14.84	22.49	1.257	274
17.024	18.09	25.77	17.38	25.03	1.257	274
17.056	18.76	26.44	18.08	25.72	1.257	274
17.088	18.85	26.54	17.90	25.55	1.257	274
17.120	18.74	26.42	17.94	25.59	1.257	274
17.152	18.64	26.32	18.01	25.65	1.257	274
17.184	17.26	24.94	18.02	25.67	1.257	274
17.216	14.60	22.28	17.93	25.57	1.257	274
17.248	13.72	21.40	15.85	23.50	1.257	274
17.280	14.00	21.68	13.92	21.57	1.257	274
17.312	13.82	21.50	14.13	21.78	1.257	274
17.344	14.55	22.23	14.05	21.70	1.257	274
17.376	16.80	24.48	15.67	23.32	1.257	274
17.408	18.51	26.20	17.96	25.61	1.257	274
17.440	18.76	26.45	18.15	25.79	1.257	274
17.472	18.62	26.30	18.08	25.73	1.257	274
17.504	18.73	26.41	17.88	25.53	1.257	274
17.536	18.16	25.85	17.87	25.52	1.257	274
17.568	15.67	23.35	17.90	25.55	1.257	274
17.600	13.95	21.63	16.76	24.40	1.257	274
17.632	13.73	21.41	14.49	22.14	1.257	274
17.664	13.95	21.63	13.80	21.44	1.257	274
17.696	14.18	21.87	14.21	21.86	1.257	274
17.728	16.25	23.94	15.22	22.87	1.257	274
17.760	18.15	25.83	17.47	25.12	1.257	274
17.792	18.66	26.34	17.79	25.44	1.257	274
17.824	18.78	26.46	17.67	25.32	1.257	274
17.856	18.67	26.36	17.93	25.58	1.257	274
17.888	18.49	26.17	17.88	25.53	1.257	274
17.920	16.39	24.07	17.98	25.63	1.257	274
17.952	14.08	21.76	17.35	25.00	1.257	274
17.984	14.00	21.68	15.03	22.68	1.257	274
18.016	14.09	21.77	13.95	21.59	1.257	274
18.048	13.93	21.61	13.84	21.49	1.257	274
18.080	15.23	22.91	13.91	21.56	1.257	274
18.112	17.41	25.10	16.02	23.67	1.257	274
18.144	18.57	26.25	17.87	25.52	1.257	274
18.176	18.54	26.22	18.00	25.65	1.257	274
18.208	18.62	26.30	17.69	25.34	1.257	274
18.240	18.68	26.36	17.71	25.36	1.257	274
18.272	16.69	24.37	17.72	25.37	1.257	274
18.304	13.99	21.67	17.37	25.02	1.257	274
18.336	13.83	21.51	15.08	22.73	1.257	274
18.368	13.56	21.24	13.75	21.39	1.257	274
18.400	14.01	21.69	13.77	21.41	1.257	274
18.432	15.67	23.35	14.81	22.46	1.257	274
18.464	17.85	25.54	17.15	24.80	1.257	274
18.496	18.66	26.35	17.81	25.45	1.257	274
18.528	18.65	26.33	17.74	25.39	1.257	274
18.560	18.55	26.23	17.83	25.47	1.257	274
18.592	18.71	26.39	17.66	25.31	1.257	274
18.624	17.69	25.37	17.61	25.25	1.257	274
18.656	14.61	22.29	17.41	25.05	1.257	274
18.688	14.04	21.72	14.73	22.38	1.257	274
18.720	13.84	21.52	14.12	21.77	1.257	274
18.752	14.23	21.91	13.96	21.60	1.257	274
18.784	15.98	23.66	14.67	22.32	1.257	274
18.816	18.05	25.73	16.73	24.38	1.257	274
18.848	18.69	26.37	17.71	25.36	1.257	274
18.880	18.53	26.21	17.81	25.46	1.257	274
18.912	18.56	26.24	17.76	25.41	1.257	274
18.944	18.47	26.16	17.72	25.37	1.257	274
18.976	17.05	24.73	17.71	25.35	1.257	274
19.008	14.29	21.97	17.48	25.13	1.257	274
19.040	13.98	21.67	15.21	22.86	1.257	274
19.072	13.87	21.55	13.88	21.53	1.257	274
19.104	14.47	22.15	13.73	21.38	1.257	274
19.136	16.57	24.25	15.35	22.99	1.257	274
19.168	18.26	25.94	17.84	25.49	1.257	274
19.200	18.66	26.34	17.74	25.39	1.257	274
19.232	18.67	26.35	17.57	25.21	1.257	274
19.264	18.59	26.27	17.59	25.23	1.257	274
19.296	18.45	26.13	17.71	25.36	1.257	274
19.328	16.06	23.74	17.83	25.48	1.257	274
19.360	13.88	21.56	16.80	24.45	1.257	274
19.392	13.90	21.58	14.58	22.23	1.257	274
19.424	13.93	21.61	13.86	21.51	1.257	274
19.456	14.22	21.90	13.89	21.54	1.257	274
19.488	16.22	23.90	15.06	22.71	1.261	275
19.520	18.33	26.01	17.47	25.11	1.261	275
19.552	18.58	26.27	17.59	25.23	1.261	275
19.584	18.65	26.33	17.74	25.39	1.261	275
19.616	18.64	26.32	17.81	25.45	1.261	275
19.648	16.98	24.66	17.75	25.40	1.261	275
19.680	14.42	22.10	17.32	24.97	1.261	275
19.712	13.89	21.57	14.71	22.36	1.261	275
19.744	13.90	21.58	13.90	21.55	1.261	275
19.776	14.24	21.92	13.60	21.24	1.261	275
19.808	15.88	23.56	14.54	22.18	1.261	275
19.840	17.90	25.58	16.73	24.38	1.261	275
19.872	18.62	26.30	17.64	25.28	1.261	275
19.904	18.57	26.26	17.82	25.47	1.261	275
19.936	18.51	26.19	17.61	25.26	1.257	274
19.968	18.45	26.13	17.60	25.25	1.257	274
20.000	15.26	22.95	17.67	25.32	1.257	274
20.032	13.84	21.52	15.77	23.42	1.257	274
20.064	13.95	21.63	13.69	21.34	1.257	274
20.096	14.00	21.68	13.79	21.43	1.257	274
20.128	15.18	22.87	13.82	21.47	1.257	274
20.160	17.65	25.33	16.51	24.16	1.257	274
20.192	18.62	26.30	17.78	25.42	1.257	274
20.224	18.67	26.36	17.69	25.34	1.257	274
20.256	18.48	26.17	17.72	25.37	1.257	274
20.288	18.39	26.07	17.77	25.42	1.257	274
20.320	15.96	23.64	17.57	25.22	1.257	274
20.352	14.21	21.89	15.83	23.48	1.257	274
20.384	14.17	21.86	14.01	21.66	1.257	274
20.416	14.17	21.86	13.84	21.49	1.257	274
20.448	16.01	23.69	14.82	22.47	1.257	274
20.480	18.13	25.81	17.42	25.07	1.257	274
20.512	18.66	26.34	17.62	25.27	1.257	274
20.544	18.45	26.13	17.56	25.20	1.257	274
20.576	18.61	26.29	17.53	25.18	1.257	274
20.608	18.29	25.98	17.54	25.18	1.257	274
20.640	15.56	23.24	17.54	25.18	1.257	274
20.672	13.86	21.55	16.37	24.02	1.257	274
20.704	14.13	21.81	13.68	21.33	1.257	274
20.736	14.05	21.73	13.75	21.39	1.257	274
20.768	15.09	22.77	13.84	21.49	1.257	274
20.800	17.54	25.22	16.64	24.29	1.257	274
20.832	18.44	26.12	17.68	25.33	1.257	274
20.864	18.43	26.11	17.75	25.40	1.257	274
20.896	18.46	26.14	17.54	25.19	1.257	274
20.928	18.11	25.79	17.58	25.23	1.257	274
20.960	15.39	23.07	17.57	25.22	1.257	274
20.992	13.77	21.45	15.88	23.53	1.257	274
21.024	13.69	21.37	13.67	21.32	1.257	274
21.056	13.79	21.48	13.65	21.30	1.257	274
21.088	15.18	22.87	13.95	21.59	1.257	274
21.120	17.58	25.27	16.72	24.37	1.257	274
21.152	18.43	26.12	17.67	25.32	1.257	274
21.184	18.43	26.11	17.67	25.31	1.257	274
21.216	18.42	26.10	17.63	25.28	1.257	274
21.248	18.23	25.92	17.52	25.17	1.257	274
21.280	15.05	22.74	17.68	25.33	1.257	274
21.312	14.05	21.73	15.46	23.11	1.257	274
21.344	13.78	21.47	13.76	21.40	1.257	274
21.376	13.82	21.50	13.75	21.39	1.257	274
21.408	15.36	23.05	14.17	21.81	1.257	274
21.440	17.88	25.56	17.01	24.65	1.257	274
21.472	18.35	26.04	17.75	25.39	1.257	274
21.504	18.42	26.10	17.59	25.24	1.257	274
21.536	18.44	26.12	17.57	25.22	1.257	274
21.568	17.60	25.28	17.52	25.17	1.257	274
21.600	14.56	22.25	17.39	25.04	1.257	274
21.632	14.02	21.70	14.55	22.20	1.257	274
21.664	14.08	21.76	13.80	21.44	1.257	274
21.696	14.69	22.37	13.78	21.42	1.257	274
21.728	17.20	24.88	16.25	23.89	1.257	274
21.760	18.53	26.21	17.58	25.22	1.257	274
21.792	18.59	26.27	17.57	25.22	1.257	274
21.824	18.55	26.24	17.43	25.08	1.257	274
21.856	18.41	26.10	17.38	25.02	1.257	274
21.888	16.16	23.84	17.50	25.15	1.257	274
21.920	13.78	21.47	16.59	24.24	1.257	274
21.952	13.92	21.60	14.10	21.75	1.257	274
21.984	13.93	21.61	13.77	21.41	1.257	274
22.016	14.77	22.46	13.70	21.35	1.257	274
22.048	17.30	24.98	16.20	23.84	1.257	274
22.080	18.23	25.91	17.44	25.08	1.257	274
22.112	18.46	26.14	17.47	25.12	1.257	274
22.144	18.52	26.20	17.60	25.25	1.257	274
22.176	17.49	25.17	17.65	25.30	1.257	274
22.208	14.74	22.43	17.52	25.17	1.257	274
22.240	13.71	21.39	15.11	22.76	1.257	274
22.272	13.75	21.43	13.65	21.30	1.257	274
22.304	14.37	22.06	13.63	21.28	1.257	274
22.336	16.28	23.96	14.64	22.29	1.257	274
22.368	17.91	25.59	17.30	24.94	1.257	274
22.400	18.50	26.18	17.48	25.13	1.257	274
22.432	18.57	26.26	17.54	25.19	1.257	274
22.464	18.40	26.08	17.45	25.10	1.257	274
22.496	18.17	25.85	17.57	25.22	1.257	274
22.528	15.12	22.80	17.53	25.18	1.257	274
22.560	13.82	21.50	15.33	22.98	1.257	274
22.592	13.81	21.49	13.86	21.51	1.257	274
22.624	13.66	21.34	13.67	21.32	1.257	274
22.656	14.95	22.63	13.75	21.39	1.257	274
22.688	17.49	25.17	16.26	23.91	1.257	274
22.720	18.32	26.00	17.54	25.19	1.257	274
22.752	18.32	26.00	17.61	25.26	1.257	274
22.784	18.37	26.05	17.39	25.04	1.257	274
22.816	18.06	25.74	17.42	25.07	1.257	274
22.848	15.03	22.72	17.56	25.20	1.257	274
22.880	13.79	21.48	15.43	23.07	1.257	274
22.912	13.81	21.49	13.80	21.44	1.257	274
22.944	14.33	22.02	13.72	21.37	1.257	274
22.976	16.71	24.39	15.89	23.53	1.257	274
23.008	18.25	25.93	17.33	24.98	1.257	274
23.040	18.36	26.04	17.27	24.92	1.257	274
23.072	18.34	26.03	17.26	24.90	1.257	274
23.104	18.26	25.95	17.26	24.90	1.257	274
23.136	17.33	25.01	17.26	24.91	1.257	274
23.168	14.34	22.02	17.14	24.79	1.257	274
23.200	13.78	21.47	14.93	22.58	1.257	274
23.232	13.74	21.42	13.67	21.32	1.261	275
23.264	13.98	21.66	13.51	21.16	1.261	275
23.296	15.91	23.59	14.73	22.38	1.261	275
23.328	17.97	25.65	17.09	24.74	1.261	275
23.360	18.14	25.82	17.18	24.83	1.261	275
23.392	18.20	25.88	17.24	24.89	1.261	275
23.424	18.16	25.84	17.31	24.96	1.261	275
23.456	15.42	23.10	17.40	25.04	1.261	275
23.488	13.65	21.33	15.69	23.34	1.261	275
23.520	13.64	21.32	13.35	20.99	1.261	275
23.552	13.81	21.49	13.36	21.00	1.261	275
23.584	15.43	23.12	14.21	21.86	1.261	275
23.616	17.52	25.20	16.61	24.26	1.261	275
23.648	18.22	25.90	17.27	24.92	1.261	275
23.680	18.25	25.93	17.29	24.93	1.261	275
23.712	18.21	25.89	17.25	24.90	1.261	275
23.744	18.19	25.87	17.22	24.87	1.261	275
23.776	15.49	23.17	17.11	24.76	1.261	275
23.808	13.91	21.59	14.95	22.60	1.261	275
23.840	13.96	21.64	13.29	20.94	1.261	275
23.872	13.89	21.58	13.33	20.98	1.261	275
23.904	15.57	23.25	14.44	22.09	1.261	275
23.936	17.72	25.40	16.76	24.40	1.261	275
23.968	18.22	25.90	17.07	24.72	1.261	275
24.000	18.21	25.89	17.12	24.77	1.261	275
24.032	18.31	25.99	17.37	25.01	1.261	275
24.064	16.90	24.58	17.21	24.86	1.261	275
24.096	13.93	21.61	16.52	24.17	1.261	275
24.128	13.82	21.50	13.85	21.50	1.261	275
24.160	13.56	21.24	13.22	20.87	1.271	277
24.192	14.91	22.59	13.95	21.59	1.271	277
24.224	17.50	25.18	16.83	24.48	1.271	277
24.256	18.10	25.78	17.24	24.89	1.271	277
24.288	18.16	25.85	17.26	24.90	1.271	277
24.320	18.15	25.83	17.14	24.79	1.271	277
24.352	18.06	25.74	17.09	24.74	1.271	277
24.384	16.09	23.77	17.16	24.80	1.271	277
24.416	13.71	21.39	16.09	23.74	1.271	277
24.448	13.69	21.37	13.66	21.31	1.271	277
24.480	13.37	21.05	13.13	20.78	1.271	277
24.512	14.04	21.73	13.25	20.90	1.271	277
24.544	15.79	23.47	14.85	22.49	1.271	277
24.576	17.86	25.54	17.08	24.73	1.271	277
24.608	18.05	25.73	16.89	24.54	1.271	276
24.640	18.05	25.74	16.93	24.58	1.266	276
24.672	18.16	25.84	17.06	24.70	1.266	276
24.704	15.92	23.60	17.14	24.78	1.266	276
24.736	13.38	21.06	16.23	23.88	1.266	276
24.768	13.38	21.07	13.83	21.48	1.266	276
24.800	13.51	21.19	13.05	20.70	1.266	276
24.832	14.34	22.03	13.19	20.83	1.266	276
24.864	16.77	24.45	15.39	23.04	1.266	276
24.896	17.99	25.67	17.22	24.87	1.266	276
24.928	18.16	25.84	17.09	24.74	1.266	276
24.960	18.12	25.80	17.16	24.81	1.266	276
24.992	18.26	25.94	17.12	24.77	1.266	276
25.024	17.44	25.13	17.06	24.71	1.266	276
25.056	14.35	22.03	16.81	24.45	1.266	276
25.088	13.82	21.50	14.08	21.72	1.261	275
25.120	13.78	21.47	13.07	20.72	1.261	275
25.152	14.18	21.86	13.23	20.88	1.261	275
25.184	16.18	23.87	14.83	22.48	1.261	275
25.216	17.77	25.45	16.95	24.59	1.261	275
25.248	17.94	25.62	16.92	24.57	1.261	275
25.280	18.14	25.83	16.99	24.64	1.261	275
25.312	18.10	25.79	17.14	24.79	1.261	275
25.344	17.25	24.93	17.00	24.64	1.261	275
25.376	14.52	22.20	17.05	24.69	1.261	275
25.408	13.34	21.02	14.69	22.34	1.261	275
25.440	13.55	21.23	13.15	20.80	1.261	275
25.472	14.01	21.69	13.38	21.02	1.261	275
25.504	16.45	24.13	15.58	23.23	1.261	275
25.536	17.85	25.53	16.95	24.60	1.261	275
25.568	17.92	25.60	17.07	24.72	1.261	275
25.600	17.98	25.67	17.01	24.65	1.261	275
25.632	17.99	25.67	16.91	24.55	1.261	275
25.664	17.35	25.03	16.87	24.52	1.261	275
25.696	14.09	21.77	16.81	24.46	1.261	275
25.728	13.11	20.79	14.44	22.09	1.261	275
25.760	13.18	20.87	13.17	20.81	1.261	275
25.792	13.38	21.07	12.94	20.59	1.261	275
25.824	14.75	22.43	13.46	21.11	1.261	275
25.856	16.99	24.67	15.94	23.59	1.261	275
25.888	17.58	25.27	16.75	24.40	1.261	275
25.920	17.84	25.52	16.80	24.45	1.261	275
25.952	17.84	25.52	16.87	24.52	1.261	275
25.984	16.21	23.89	17.02	24.67	1.261	275
26.016	13.48	21.17	16.31	23.96	1.261	275
26.048	13.20	20.89	13.92	21.57	1.261	275
26.080	13.35	21.03	13.11	20.76	1.261	275
26.112	14.33	22.02	13.19	20.83	1.261	275
26.144	16.67	24.35	15.50	23.14	1.261	275
26.176	17.84	25.53	16.83	24.48	1.261	275
26.208	17.91	25.59	16.78	24.43	1.261	275
26.240	17.88	25.57	16.85	24.50	1.261	275
26.272	17.87	25.55	16.90	24.55	1.261	275
26.304	16.66	24.34	16.98	24.63	1.261	275
26.336	13.63	21.31	16.04	23.68	1.261	275
26.368	13.45	21.13	13.15	20.80	1.261	275
26.400	13.56	21.24	13.17	20.81	1.261	275
26.432	15.01	22.69	13.75	21.39	1.261	275
26.464	17.11	24.79	16.28	23.93	1.261	275
26.496	17.66	25.34	16.86	24.51	1.261	275
26.528	17.78	25.46	16.75	24.39	1.261	275
26.560	17.82	25.51	16.90	24.54	1.261	275
26.592	17.43	25.12	16.87	24.52	1.261	275
26.624	14.70	22.38	16.79	24.44	1.261	275
26.656	13.06	20.74	14.89	22.54	1.261	275
26.688	13.21	20.90	13.23	20.88	1.261	275
26.720	13.86	21.54	13.06	20.71	1.261	275
26.752	16.24	23.92	15.32	22.96	1.261	275
26.784	17.66	25.35	16.88	24.53	1.261	275
26.816	17.82	25.50	16.76	24.40	1.261	275
26.848	17.82	25.50	16.79	24.43	1.261	275
26.880	17.87	25.55	16.88	24.52	1.261	275
26.912	16.93	24.62	16.79	24.44	1.261	275
26.944	13.77	21.45	16.57	24.21	1.261	275
26.976	13.12	20.80	14.05	21.70	1.257	274
27.008	13.03	20.72	13.02	20.67	1.257	274
27.040	13.26	20.94	13.13	20.78	1.257	274
27.072	15.29	22.97	14.48	22.13	1.257	274
27.104	17.38	25.06	16.70	24.35	1.257	274
27.136	17.71	25.39	16.61	24.25	1.257	274
27.168	17.65	25.34	16.49	24.13	1.257	274
27.200	17.40	25.08	16.62	24.27	1.257	274
27.232	13.92	21.60	16.61	24.26	1.257	274
27.264	13.21	20.90	13.89	21.54	1.257	274
27.296	13.05	20.73	12.98	20.63	1.257	274
27.328	13.90	21.58	12.76	20.41	1.257	274
27.360	16.20	23.88	15.39	23.04	1.257	274
27.392	17.52	25.20	16.83	24.47	1.257	274
27.424	17.82	25.50	17.01	24.65	1.261	275
27.456	17.76	25.44	16.68	24.33	1.261	275
27.488	17.63	25.32	16.49	24.14	1.261	275
27.520	17.06	24.74	16.51	24.15	1.261	275
27.552	13.81	21.50	16.50	24.15	1.261	275
27.584	13.33	21.01	13.54	21.19	1.261	275
27.616	13.26	20.94	12.89	20.54	1.261	275
27.648	14.21	21.89	13.23	20.88	1.261	275
27.680	16.58	24.26	15.75	23.40	1.261	275
27.712	17.46	25.14	16.63	24.28	1.261	275
27.744	17.40	25.08	16.72	24.37	1.261	275
27.776	17.20	24.88	16.61	24.25	1.261	275
27.808	16.77	24.45	16.49	24.14	1.261	275
27.840	13.73	21.41	16.47	24.12	1.261	275
27.872	12.57	20.25	14.68	22.33	1.261	275
27.904	12.58	20.26	12.84	20.49	1.257	274
27.936	13.18	20.87	12.80	20.44	1.257	274
27.968	15.00	22.68	14.21	21.86	1.257	274
28.000	17.21	24.89	16.35	24.00	1.257	274
28.032	17.34	25.02	16.43	24.07	1.257	274
28.064	17.40	25.08	16.42	24.06	1.257	274
28.096	17.35	25.03	16.50	24.15	1.257	274
28.128	15.77	23.45	16.51	24.15	1.257	274
28.160	12.92	20.60	15.70	23.35	1.257	274
28.192	12.85	20.53	12.92	20.57	1.257	274
28.224	12.86	20.54	12.82	20.46	1.257	274
28.256	13.91	21.59	13.00	20.64	1.257	274
28.288	16.29	23.97	15.19	22.83	1.257	274
28.320	17.25	24.93	16.37	24.02	1.257	274
28.352	17.23	24.91	16.39	24.03	1.257	274
28.384	17.35	25.03	16.50	24.15	1.257	274
28.416	16.46	24.14	16.34	23.99	1.257	274
28.448	13.15	20.83	15.96	23.61	1.257	274
28.480	12.76	20.44	12.95	20.60	1.257	274
28.512	12.94	20.62	12.61	20.25	1.257	274
28.544	14.55	22.23	13.49	21.14	1.257	274
28.576	16.72	24.40	16.07	23.72	1.257	274
28.608	17.30	24.98	16.48	24.13	1.257	274
28.640	17.11	24.79	16.38	24.03	1.257	274
28.672	17.26	24.94	16.39	24.04	1.257	274
28.704	17.29	24.98	16.48	24.13	1.257	274
28.736	14.82	22.50	16.42	24.07	1.257	274
28.768	12.77	20.45	14.77	22.42	1.257	274
28.800	12.82	20.51	12.62	20.26	1.257	274
28.832	13.11	20.80	12.57	20.22	1.257	274
28.864	15.36	23.04	14.77	22.41	1.257	274
28.896	17.01	24.69	16.27	23.92	1.257	274
28.928	17.04	24.73	16.56	24.20	1.257	274
28.960	17.07	24.75	16.44	24.08	1.257	274
28.992	16.89	24.57	16.35	23.99	1.257	274
29.024	14.28	21.96	16.29	23.93	1.257	274
29.056	12.68	20.36	14.47	22.12	1.257	274
29.088	12.55	20.23	12.40	20.04	1.257	274
29.120	12.91	20.59	12.16	19.81	1.257	274
29.152	14.75	22.43	13.84	21.49	1.257	274
29.184	16.70	24.38	16.05	23.70	1.257	274
29.216	16.98	24.66	16.05	23.70	1.257	274
29.248	16.87	24.55	16.27	23.92	1.257	274
29.280	16.96	24.64	16.19	23.84	1.257	274
29.312	15.56	23.24	16.25	23.90	1.257	274
29.344	12.44	20.12	15.26	22.90	1.257	274
29.376	12.47	20.15	12.41	20.05	1.257	274
29.408	12.34	20.02	12.31	19.96	1.257	274
29.440	13.77	21.45	13.00	20.64	1.257	274
29.472	16.16	23.84	15.88	23.53	1.257	274
29.504	16.76	24.44	16.12	23.77	1.257	274
29.536	16.69	24.37	16.19	23.83	1.257	274
29.568	16.69	24.37	16.13	23.77	1.257	274
29.600	16.11	23.79	16.13	23.78	1.257	274
29.632	13.18	20.87	16.08	23.72	1.257	274
29.664	12.17	19.85	13.51	21.16	1.257	274
29.696	12.11	19.79	12.34	19.99	1.257	274
29.728	13.33	21.01	12.71	20.36	1.257	274
29.760	15.80	23.49	15.69	23.34	1.257	274
29.792	16.54	24.22	16.14	23.79	1.257	274
29.824	16.69	24.37	15.99	23.64	1.257	274
29.856	16.47	24.15	15.88	23.53	1.257	274
29.888	16.51	24.20	15.87	23.52	1.257	274
29.920	14.08	21.76	15.88	23.53	1.257	274
29.952	12.23	19.92	14.30	21.95	1.257	274
29.984	12.03	19.72	12.12	19.77	1.257	274
30.016	12.21	19.89	12.10	19.75	1.257	274
30.048	14.21	21.89	13.24	20.89	1.257	274
30.080	16.05	23.73	15.95	23.59	1.257	274
30.112	16.33	24.02	15.84	23.49	1.257	274
30.144	16.26	23.94	15.87	23.52	1.257	274
30.176	16.05	23.74	15.83	23.48	1.257	274
30.208	13.08	20.77	15.91	23.56	1.257	274
30.240	11.87	19.56	13.52	21.17	1.257	274
30.272	11.75	19.43	12.07	19.72	1.257	274
30.304	12.50	20.18	12.09	19.74	1.257	274
30.336	15.17	22.85	14.35	21.99	1.257	274
30.368	16.25	23.93	15.93	23.58	1.257	274
30.400	16.36	24.04	15.85	23.50	1.257	274
30.432	16.23	23.91	15.88	23.52	1.257	274
30.464	16.24	23.92	15.90	23.55	1.257	274
30.496	15.78	23.46	15.78	23.43	1.257	274
30.528	12.63	20.32	15.69	23.33	1.257	274
30.560	12.05	19.74	12.60	20.24	1.257	274
30.592	11.85	19.54	12.08	19.73	1.257	274
30.624	13.39	21.07	12.78	20.43	1.257	274
30.656	15.84	23.52	15.54	23.18	1.257	274
30.688	16.16	23.84	15.86	23.51	1.257	274
30.720	16.06	23.74	15.72	23.37	1.252	273
30.752	16.12	23.80	15.67	23.32	1.252	273
30.784	15.13	22.81	15.77	23.42	1.252	273
30.816	12.21	19.89	15.81	23.46	1.252	273
30.848	11.68	19.37	13.36	21.01	1.252	273
30.880	11.63	19.32	11.93	19.58	1.252	273
30.912	12.60	20.28	11.98	19.63	1.252	273
30.944	15.36	23.04	15.06	22.71	1.252	273
30.976	16.13	23.81	15.78	23.43	1.252	273
31.008	16.07	23.75	15.83	23.48	1.252	273
31.040	16.09	23.77	15.77	23.42	1.252	273
31.072	15.96	23.64	15.69	23.34	1.252	273
31.104	13.58	21.26	15.69	23.34	1.252	273
31.136	11.79	19.47	13.89	21.54	1.252	273
31.168	11.80	19.48	12.17	19.82	1.257	274
31.200	12.50	20.18	11.88	19.53	1.257	274
31.232	14.55	22.24	13.66	21.30	1.257	274
31.264	15.86	23.54	15.63	23.27	1.257	274
31.296	15.97	23.65	15.74	23.38	1.257	274
31.328	15.95	23.63	15.80	23.44	1.257	274
31.360	15.92	23.60	15.65	23.30	1.257	274
31.392	13.08	20.77	15.63	23.28	1.257	274
31.424	11.58	19.26	13.29	20.94	1.257	274
31.456	11.72	19.40	12.10	19.75	1.257	274
31.488	13.11	20.79	12.56	20.21	1.257	274
31.520	15.33	23.01	15.12	22.77	1.257	274
31.552	15.95	23.63	15.66	23.30	1.257	274
31.584	15.85	23.53	15.53	23.18	1.257	274
31.616	15.95	23.64	15.56	23.20	1.257	274
31.648	15.90	23.58	15.73	23.38	1.252	273
31.680	13.88	21.56	15.72	23.37	1.252	273
31.712	11.54	19.23	14.21	21.86	1.252	273
31.744	11.58	19.26	11.95	19.60	1.252	273
31.776	11.91	19.59	11.96	19.61	1.252	273
31.808	14.74	22.43	14.36	22.01	1.252	273
31.840	15.85	23.53	15.62	23.27	1.252	273
31.872	15.88	23.57	15.74	23.38	1.252	273
31.904	15.90	23.59	15.69	23.34	1.252	273
31.936	15.06	22.74	15.59	23.24	1.252	273
31.968	12.02	19.70	15.37	23.01	1.252	273
32.000	11.41	19.09	12.37	20.02	1.252	273
32.032	11.66	19.35	11.87	19.52	1.252	273
32.064	13.35	21.03	12.85	20.50	1.252	273
32.096	15.44	23.12	15.55	23.20	1.252	273
32.128	15.80	23.49	15.65	23.30	1.257	274
32.160	15.76	23.44	15.57	23.22	1.257	274
32.192	15.76	23.44	15.62	23.27	1.257	274
32.224	14.86	22.54	15.70	23.34	1.257	274
32.256	11.77	19.45	14.70	22.34	1.257	274
32.288	11.66	19.35	11.98	19.63	1.257	274
32.320	12.12	19.80	11.67	19.32	1.257	274
32.352	14.66	22.34	13.78	21.43	1.257	274
32.384	15.74	23.42	15.64	23.29	1.257	274
32.416	15.78	23.46	15.73	23.38	1.257	274
32.448	15.85	23.53	15.76	23.41	1.257	274
32.480	15.48	23.16	15.66	23.30	1.257	274
32.512	12.55	20.23	15.65	23.30	1.257	274
32.544	11.54	19.22	13.24	20.89	1.257	274
32.576	11.44	19.13	12.10	19.75	1.252	273
32.608	13.00	20.68	12.77	20.42	1.252	273
32.640	15.55	23.23	15.69	23.33	1.252	273
32.672	15.77	23.45	15.64	23.28	1.252	273
32.704	15.94	23.63	15.49	23.14	1.252	273
32.736	15.85	23.53	15.59	23.23	1.252	273
32.768	14.65	22.33	15.67	23.32	1.252	273
32.800	11.79	19.47	15.48	23.13	1.252	273
32.832	11.43	19.11	12.61	20.25	1.252	273
32.864	11.50	19.18	11.92	19.57	1.252	273
32.896	13.06	20.74	12.43	20.07	1.252	273
32.928	15.42	23.10	15.08	22.73	1.252	273
32.960	15.71	23.39	15.72	23.37	1.252	273
32.992	15.80	23.48	15.69	23.34	1.252	273
33.024	15.71	23.39	15.56	23.21	1.252	273
33.056	14.21	21.90	15.56	23.20	1.252	273
33.088	11.61	19.29	13.91	21.56	1.252	273
33.120	11.73	19.41	12.03	19.67	1.252	273
33.152	12.68	20.36	12.20	19.84	1.252	273
33.184	15.37	23.06	14.96	22.61	1.252	273
33.216	15.83	23.51	15.64	23.28	1.252	273
33.248	15.69	23.37	15.61	23.25	1.252	273
33.280	15.74	23.42	15.58	23.23	1.252	273
33.312	15.35	23.03	15.68	23.32	1.252	273
33.344	12.42	20.10	15.66	23.31	1.252	273
33.376	11.31	18.99	13.13	20.78	1.252	273
33.408	11.36	19.04	12.00	19.64	1.252	273
33.440	13.03	20.71	12.67	20.32	1.252	273
33.472	15.45	23.13	15.51	23.16	1.252	273
33.504	15.58	23.27	15.39	23.03	1.252	273
33.536	15.70	23.38	15.54	23.19	1.252	273
33.568	15.26	22.94	15.75	23.39	1.252	273
33.600	12.29	19.97	15.68	23.33	1.252	273
33.632	11.15	18.83	12.99	20.64	1.252	273
33.664	11.24	18.92	11.87	19.52	1.252	273
33.696	13.08	20.77	12.52	20.17	1.252	273
33.728	15.43	23.11	15.17	22.82	1.252	273
33.760	15.75	23.43	15.65	23.30	1.252	273
33.792	15.76	23.44	15.61	23.25	1.252	273
33.824	15.73	23.42	15.55	23.19	1.252	273
33.856	15.42	23.10	15.45	23.09	1.252	273
33.888	11.98	19.67	15.10	22.75	1.252	273
33.920	11.68	19.37	11.94	19.59	1.252	273
33.952	11.73	19.42	12.15	19.80	1.252	273
33.984	14.54	22.22	14.25	21.89	1.252	273
34.016	15.70	23.39	15.64	23.29	1.252	273
34.048	15.68	23.36	15.56	23.20	1.252	273
34.080	15.64	23.32	15.54	23.18	1.252	273
34.112	14.80	22.48	15.55	23.19	1.252	273
34.144	11.51	19.20	15.48	23.13	1.252	273
34.176	11.12	18.80	12.88	20.53	1.252	273
34.208	11.16	18.84	11.92	19.57	1.252	273
34.240	13.13	20.82	12.76	20.41	1.252	273
34.272	15.47	23.15	15.43	23.08	1.252	273
34.304	15.66	23.34	15.45	23.09	1.252	273
34.336	15.56	23.24	15.51	23.16	1.252	273
34.368	15.51	23.19	15.63	23.28	1.252	273
34.400	12.76	20.44	15.60	23.25	1.252	273
34.432	11.20	18.88	13.55	21.20	1.252	273
34.464	11.20	18.88	11.93	19.58	1.248	272
34.496	12.15	19.83	12.04	19.68	1.248	272
34.528	15.10	22.78	14.93	22.58	1.248	272
34.560	15.73	23.42	15.57	23.22	1.248	272
34.592	15.76	23.44	15.57	23.21	1.248	272
34.624	15.70	23.38	15.42	23.07	1.248	272
34.656	14.53	22.22	15.40	23.05	1.248	272
34.688	11.45	19.13	14.51	22.16	1.248	272
34.720	11.50	19.18	11.80	19.45	1.248	272
34.752	12.35	20.03	12.00	19.64	1.248	272
34.784	15.14	22.82	15.20	22.85	1.248	272
34.816	15.57	23.25	15.59	23.24	1.248	272
34.848	15.65	23.34	15.52	23.17	1.248	272
34.880	15.60	23.28	15.44	23.09	1.248	272
34.912	15.47	23.15	15.49	23.14	1.252	273
34.944	12.61	20.30	15.58	23.22	1.252	273
34.976	11.12	18.80	13.25	20.90	1.252	273
35.008	11.37	19.05	11.74	19.39	1.252	273
35.040	12.51	20.20	11.80	19.45	1.252	273
35.072	15.15	22.84	14.81	22.46	1.252	273
35.104	15.61	23.29	15.46	23.10	1.252	273
35.136	15.58	23.26	15.49	23.13	1.252	273
35.168	15.49	23.18	15.47	23.12	1.252	273
35.200	12.70	20.38	15.57	23.21	1.252	273
35.232	11.24	18.92	13.19	20.83	1.252	273
35.264	11.24	18.92	11.57	19.22	1.252	273
35.296	12.33	20.01	11.73	19.38	1.252	273
35.328	14.97	22.66	15.09	22.74	1.252	273
35.360	15.52	23.20	15.56	23.20	1.252	273
35.392	15.64	23.32	15.50	23.15	1.248	272
35.424	15.75	23.43	15.33	22.98	1.248	272
35.456	15.60	23.29	15.35	23.00	1.248	272
35.488	12.78	20.46	15.48	23.13	1.248	272
35.520	11.36	19.04	12.97	20.62	1.248	272
35.552	11.56	19.24	12.18	19.83	1.248	272
35.584	13.93	21.61	13.66	21.31	1.248	272
35.616	15.63	23.31	15.52	23.17	1.248	272
35.648	15.59	23.28	15.45	23.09	1.248	272
35.680	15.58	23.27	15.45	23.09	1.248	272
35.712	15.17	22.85	15.47	23.12	1.248	272
35.744	12.22	19.90	15.37	23.02	1.248	272
35.776	11.26	18.94	12.57	20.22	1.248	272
35.808	11.18	18.86	11.43	19.08	1.248	272
35.840	12.75	20.43	11.79	19.44	1.248	272
35.872	15.20	22.88	15.05	22.70	1.252	273
35.904	15.60	23.28	15.47	23.12	1.252	273
35.936	15.49	23.17	15.42	23.06	1.252	273
35.968	15.56	23.24	15.38	23.03	1.252	273
36.000	14.25	21.93	15.32	22.97	1.252	273
36.032	11.36	19.04	13.87	21.52	1.252	273
36.064	11.07	18.75	11.82	19.46	1.252	273
36.096	12.18	19.87	11.57	19.22	1.252	273
36.128	14.93	22.62	14.41	22.05	1.252	273
36.160	15.59	23.28	15.37	23.02	1.252	273
36.192	15.58	23.27	15.30	22.95	1.252	273
36.224	15.52	23.20	15.27	22.92	1.252	273
36.256	14.36	22.05	15.33	22.97	1.252	273
36.288	11.61	19.29	14.94	22.59	1.252	273
36.320	11.18	18.86	12.10	19.75	1.248	272
36.352	11.54	19.22	11.74	19.39	1.248	272
36.384	14.12	21.80	13.71	21.36	1.248	272
36.416	15.48	23.16	15.29	22.94	1.248	272
36.448	15.42	23.10	15.27	22.92	1.248	272
36.480	15.40	23.08	15.36	23.01	1.248	272
36.512	15.40	23.08	15.39	23.03	1.248	272
36.544	12.64	20.32	15.27	22.91	1.248	272
36.576	11.34	19.02	13.01	20.65	1.248	272
36.608	11.42	19.10	11.51	19.16	1.248	272
36.640	12.39	20.08	11.75	19.40	1.248	272
36.672	14.82	22.50	14.11	21.76	1.248	272
36.704	15.64	23.32	15.26	22.91	1.248	272
36.736	15.50	23.18	15.27	22.91	1.248	272
36.768	15.51	23.19	15.20	22.85	1.248	272
36.800	14.32	22.00	15.12	22.77	1.243	271
36.832	11.38	19.07	13.73	21.37	1.243	271
36.864	11.13	18.81	11.62	19.27	1.243	271
36.896	12.37	20.05	12.03	19.67	1.243	271
36.928	15.03	22.71	14.98	22.62	1.243	271
36.960	15.58	23.26	15.12	22.77	1.243	271
36.992	15.53	23.22	14.98	22.63	1.243	271
37.024	15.53	23.21	15.01	22.65	1.243	271
37.056	15.47	23.15	15.15	22.79	1.243	271
37.088	13.19	20.87	15.21	22.85	1.243	271
37.120	11.53	19.21	13.47	21.12	1.243	271
37.152	11.46	19.15	11.32	18.97	1.243	271
37.184	12.28	19.96	11.35	19.00	1.243	271
37.216	14.93	22.62	14.79	22.43	1.243	271
37.248	15.60	23.28	15.03	22.68	1.243	271
37.280	15.71	23.40	15.10	22.75	1.243	271
37.312	15.62	23.30	15.05	22.70	1.243	271
37.344	12.81	20.49	15.07	22.72	1.243	271
37.376	11.33	19.01	12.91	20.56	1.243	271
37.408	11.41	19.09	11.43	19.08	1.243	271
37.440	12.98	20.67	12.14	19.79	1.243	271
37.472	15.39	23.07	15.06	22.71	1.243	271
37.504	15.90	23.58	15.14	22.79	1.243	271
37.536	15.71	23.39	15.00	22.65	1.243	271
37.568	15.69	23.37	14.97	22.62	1.243	271
37.600	15.45	23.13	14.95	22.60	1.243	271
37.632	12.21	19.89	14.91	22.55	1.243	271
37.664	11.51	19.19	11.69	19.34	1.243	271
37.696	11.87	19.55	11.58	19.23	1.243	271
37.728	14.36	22.05	13.77	21.42	1.248	272
37.760	15.68	23.36	15.03	22.68	1.248	272
37.792	15.72	23.40	15.01	22.66	1.248	272
37.824	15.62	23.30	15.00	22.64	1.248	272
37.856	14.94	22.63	15.03	22.68	1.248	272
37.888	11.69	19.37	14.65	22.30	1.248	272
37.920	11.09	18.78	12.00	19.64	1.248	272
37.952	11.41	19.09	11.43	19.08	1.248	272
37.984	13.71	21.39	13.01	20.65	1.248	272
38.016	15.51	23.19	15.05	22.69	1.248	272
38.048	15.61	23.29	15.08	22.73	1.248	272
38.080	15.59	23.27	14.97	22.62	1.248	272
38.112	15.55	23.23	14.94	22.59	1.248	272
38.144	12.64	20.32	14.87	22.52	1.248	272
38.176	11.68	19.37	12.06	19.71	1.248	272
38.208	11.27	18.96	11.18	18.83	1.248	272
38.240	12.84	20.53	12.08	19.73	1.248	272
38.272	15.23	22.92	15.00	22.65	1.248	272
38.304	15.63	23.32	15.06	22.70	1.248	272
38.336	15.78	23.46	14.98	22.63	1.248	272
38.368	15.67	23.35	15.03	22.68	1.248	272
38.400	13.81	21.49	15.09	22.74	1.248	272
38.432	11.28	18.97	13.50	21.14	1.248	272
38.464	11.68	19.37	11.53	19.18	1.248	272
38.496	13.38	21.07	12.49	20.14	1.248	272
38.528	15.39	23.08	14.92	22.57	1.248	272
38.560	15.53	23.22	14.88	22.53	1.248	272
38.592	15.66	23.35	14.95	22.60	1.248	272
38.624	15.65	23.33	14.98	22.63	1.248	272
38.656	14.69	22.37	14.97	22.61	1.243	271
38.688	11.63	19.31	14.05	21.70	1.243	271
38.720	11.51	19.19	11.21	18.86	1.243	271
38.752	11.79	19.47	11.12	18.77	1.243	271
38.784	14.11	21.79	13.42	21.07	1.243	271
38.816	15.55	23.24	15.00	22.65	1.243	271
38.848	15.62	23.30	14.98	22.62	1.243	271
38.880	15.72	23.40	14.90	22.55	1.243	271
38.912	14.53	22.21	14.87	22.52	1.243	271
38.944	11.65	19.33	13.47	21.12	1.243	271
38.976	11.68	19.37	11.29	18.93	1.243	271
39.008	12.80	20.48	11.59	19.24	1.243	271
39.040	15.18	22.86	14.56	22.21	1.243	271
39.072	15.80	23.48	14.89	22.53	1.243	271
39.104	15.79	23.47	14.95	22.60	1.243	271
39.136	15.65	23.33	14.96	22.61	1.252	273
39.168	15.21	22.89	14.85	22.49	1.252	273
39.200	12.25	19.94	14.69	22.34	1.252	273
39.232	11.78	19.46	11.45	19.09	1.252	273
39.264	12.10	19.78	11.48	19.13	1.252	273
39.296	14.71	22.39	14.33	21.98	1.252	273
39.328	15.59	23.27	14.82	22.47	1.252	273
39.360	15.70	23.38	14.76	22.41	1.252	273
39.392	15.63	23.32	14.77	22.42	1.252	273
39.424	12.44	20.12	14.75	22.40	1.252	273
39.456	11.38	19.06	12.09	19.74	1.252	273
39.488	11.74	19.42	11.26	18.90	1.252	273
39.520	13.88	21.56	13.03	20.68	1.252	273
39.552	15.60	23.28	14.88	22.53	1.252	273
39.584	15.76	23.44	14.79	22.44	1.252	273
39.616	15.69	23.37	14.80	22.44	1.252	273
39.648	15.59	23.27	14.86	22.51	1.252	273
39.680	13.41	21.09	14.84	22.49	1.252	273
39.712	11.57	19.25	12.64	20.29	1.252	273
39.744	11.93	19.61	11.55	19.20	1.252	273
39.776	13.87	21.55	13.23	20.87	1.252	273
39.808	15.67	23.35	14.74	22.39	1.252	273
39.840	15.80	23.48	14.64	22.29	1.252	273
39.872	15.75	23.43	14.74	22.39	1.252	273
39.904	14.97	22.65	14.86	22.50	1.252	273
39.936	11.48	19.16	14.19	21.84	1.252	273
39.968	11.43	19.11	11.21	18.86	1.252	273
40.000	11.92	19.60	11.08	18.72	1.252	273
40.032	14.27	21.95	13.18	20.82	1.252	273
40.064	15.60	23.28	14.81	22.46	1.248	272
40.096	15.61	23.29	14.88	22.52	1.248	272
40.128	15.66	23.35	14.88	22.53	1.248	272
40.160	15.42	23.11	14.83	22.48	1.248	272
40.192	12.17	19.85	14.58	22.23	1.248	272
40.224	11.79	19.47	11.16	18.81	1.248	272
40.256	11.82	19.50	11.03	18.68	1.248	272
40.288	13.86	21.55	12.91	20.55	1.248	272
40.320	15.40	23.08	14.91	22.56	1.248	272
40.352	15.71	23.39	14.91	22.55	1.248	272
40.384	15.74	23.43	14.75	22.39	1.248	272
40.416	15.74	23.42	14.78	22.43	1.248	272
40.448	13.30	20.98	14.81	22.46	1.248	272
40.480	11.47	19.16	13.00	20.64	1.248	272
40.512	11.53	19.21	11.23	18.88	1.248	272
40.544	12.91	20.59	11.98	19.63	1.248	272
40.576	15.24	22.93	14.81	22.45	1.248	272
40.608	15.64	23.33	14.70	22.34	1.248	272
40.640	15.64	23.32	14.71	22.36	1.248	272
40.672	15.87	23.56	14.80	22.45	1.248	272
40.704	14.38	22.07	14.85	22.49	1.248	272
40.736	11.47	19.15	13.93	21.57	1.248	272
40.768	11.54	19.22	11.27	18.91	1.248	272
40.800	12.02	19.70	11.12	18.77	1.248	272
40.832	14.39	22.08	13.26	20.90	1.248	272
40.864	15.62	23.30	14.84	22.49	1.248	272
40.896	15.64	23.33	14.95	22.60	1.248	272
40.928	15.64	23.33	14.82	22.47	1.248	272
40.960	15.07	22.75	14.75	22.39	1.248	272
40.992	11.77	19.45	14.26	21.91	1.248	271
41.024	11.37	19.05	11.17	18.82	1.243	271
41.056	12.12	19.80	11.16	18.81	1.243	271
41.088	14.85	22.53	14.20	21.85	1.243	271
41.120	15.67	23.35	14.95	22.59	1.243	271
41.152	15.69	23.37	14.85	22.49	1.243	271
41.184	15.70	23.38	14.77	22.42	1.243	271
41.216	15.56	23.24	14.81	22.46	1.243	271
41.248	12.85	20.53	14.75	22.39	1.243	271
41.280	11.51	19.19	12.97	20.61	1.243	271
41.312	11.57	19.25	11.23	18.88	1.243	271
41.344	12.76	20.44	11.54	19.19	1.243	271
41.376	15.19	22.87	14.76	22.41	1.243	271
41.408	15.55	23.23	14.64	22.29	1.243	271
41.440	15.54	23.22	14.67	22.32	1.243	271
41.472	15.39	23.07	14.88	22.52	1.252	273
41.504	12.25	19.93	14.84	22.48	1.252	273
41.536	11.27	18.96	12.34	19.99	1.252	273
41.568	11.21	18.89	11.13	18.78	1.252	273
41.600	12.73	20.41	11.96	19.61	1.252	273
41.632	15.24	22.92	14.80	22.44	1.252	273
41.664	15.82	23.50	14.81	22.46	1.252	273
41.696	15.76	23.45	14.88	22.53	1.252	273
41.728	15.65	23.33	14.75	22.39	1.252	273
41.760	15.47	23.15	14.69	22.34	1.252	273
41.792	12.06	19.75	14.50	22.15	1.252	273
41.824	11.61	19.29	11.43	19.08	1.252	273
41.856	12.20	19.88	11.47	19.11	1.252	273
41.888	14.93	22.61	14.55	22.20	1.252	273
41.920	15.73	23.41	14.88	22.53	1.252	273
41.952	15.75	23.43	14.77	22.42	1.248	272
41.984	15.66	23.34	14.82	22.47	1.248	272
42.016	13.95	21.63	14.79	22.43	1.248	272
42.048	11.33	19.01	13.39	21.04	1.248	272
42.080	11.19	18.87	10.93	18.58	1.248	272
42.112	12.06	19.75	11.17	18.82	1.248	272
42.144	14.63	22.32	13.93	21.57	1.248	272
42.176	15.65	23.33	14.81	22.45	1.248	272
42.208	15.58	23.26	14.61	22.25	1.248	272
42.240	15.58	23.26	14.70	22.35	1.248	272
42.272	15.11	22.79	14.76	22.41	1.248	272
42.304	11.83	19.52	14.25	21.89	1.248	272
42.336	11.46	19.15	11.16	18.81	1.248	272
42.368	11.83	19.51	11.16	18.81	1.248	272
42.400	13.80	21.48	13.07	20.72	1.248	272
42.432	15.55	23.23	14.76	22.41	1.248	272
42.464	15.66	23.35	14.79	22.44	1.248	272
42.496	15.75	23.43	14.91	22.55	1.248	272
42.528	15.39	23.07	14.73	22.38	1.248	272
42.560	12.40	20.08	14.76	22.41	1.248	272
42.592	11.50	19.18	11.70	19.35	1.248	272
42.624	11.66	19.35	11.05	18.69	1.248	272
42.656	14.02	21.70	13.13	20.78	1.248	272
42.688	15.71	23.39	14.80	22.44	1.248	272
42.720	15.75	23.43	14.90	22.55	1.248	272
42.752	15.85	23.53	14.84	22.49	1.248	272
42.784	15.81	23.50	14.82	22.46	1.248	272
42.816	13.30	20.98	14.75	22.39	1.248	272
42.848	11.40	19.08	13.00	20.65	1.248	272
42.880	11.55	19.23	11.20	18.85	1.248	272
42.912	12.31	19.99	11.05	18.69	1.248	272
42.944	14.48	22.16	13.70	21.34	1.248	272
42.976	15.71	23.39	14.73	22.38	1.248	272
43.008	15.75	23.43	14.74	22.39	1.248	272
43.040	15.67	23.35	14.66	22.31	1.248	272
43.072	14.54	22.22	14.68	22.32	1.248	272
43.104	11.60	19.28	13.69	21.34	1.248	272
43.136	11.48	19.17	11.30	18.94	1.248	272
43.168	12.46	20.14	11.19	18.84	1.248	272
43.200	15.03	22.72	14.06	21.71	1.248	272
43.232	15.84	23.52	14.74	22.39	1.248	272
43.264	15.82	23.50	14.79	22.43	1.248	272
43.296	15.83	23.51	14.77	22.42	1.248	272
43.328	15.87	23.56	14.76	22.40	1.248	272
43.360	13.73	21.41	14.76	22.40	1.248	272
43.392	11.58	19.26	13.26	20.90	1.248	272
43.424	11.54	19.22	11.10	18.74	1.248	272
43.456	12.52	20.21	11.37	19.02	1.248	272
43.488	15.10	22.78	14.78	22.43	1.248	272
43.520	15.74	23.42	14.75	22.40	1.248	272
43.552	15.69	23.37	14.73	22.37	1.248	272
43.584	15.68	23.36	14.62	22.27	1.248	272
43.616	13.26	20.94	14.70	22.34	1.248	272
43.648	11.15	18.83	13.33	20.98	1.248	272
43.680	11.50	19.18	11.16	18.81	1.248	272
43.712	12.39	20.07	11.33	18.98	1.248	272
43.744	15.07	22.75	14.05	21.70	1.248	272
43.776	16.01	23.69	14.55	22.19	1.248	272
43.808	15.75	23.43	14.65	22.29	1.243	271
43.840	15.74	23.42	14.78	22.42	1.243	271
43.872	15.64	23.32	14.79	22.43	1.243	271
43.904	12.47	20.15	14.74	22.38	1.243	271
43.936	11.73	19.41	11.51	19.15	1.243	271
43.968	11.99	19.67	11.22	18.87	1.243	271
44.000	14.33	22.02	13.40	21.04	1.243	271
44.032	15.76	23.45	14.82	22.47	1.243	271
44.064	15.82	23.50	14.82	22.47	1.243	271
44.096	15.73	23.41	14.69	22.33	1.243	271
44.128	15.26	22.94	14.66	22.31	1.243	271
44.160	11.97	19.65	14.52	22.17	1.243	271
44.192	11.44	19.13	11.75	19.40	1.243	271
44.224	11.41	19.09	11.27	18.91	1.243	271
44.256	13.47	21.15	12.70	20.35	1.243	271
44.288	15.58	23.26	14.76	22.41	1.257	274
44.320	15.61	23.29	14.69	22.34	1.257	274
44.352	15.72	23.41	14.70	22.35	1.257	274
44.384	15.53	23.21	14.67	22.32	1.257	274
44.416	12.56	20.24	14.75	22.40	1.257	274
44.448	11.50	19.18	12.54	20.19	1.257	274
44.480	11.77	19.45	11.05	18.69	1.257	274
44.512	12.83	20.51	11.69	19.34	1.257	274
44.544	15.17	22.85	14.73	22.37	1.257	274
44.576	15.82	23.50	14.68	22.33	1.257	274
44.608	15.88	23.57	14.73	22.38	1.257	274
44.640	15.73	23.42	14.87	22.51	1.257	274
44.672	14.50	22.18	14.74	22.38	1.257	274
44.704	11.74	19.42	13.75	21.40	1.257	274
44.736	11.38	19.06	11.13	18.78	1.257	274
44.768	12.10	19.78	11.13	18.78	1.252	273
44.800	14.84	22.52	14.14	21.79	1.252	273
44.832	15.68	23.36	14.80	22.45	1.252	273
44.864	15.86	23.54	14.74	22.39	1.252	273
44.896	15.85	23.53	14.73	22.38	1.252	273
44.928	15.72	23.41	14.65	22.29	1.252	273
44.960	13.38	21.06	14.67	22.32	1.252	273
44.992	11.55	19.23	12.84	20.49	1.252	273
45.024	11.67	19.36	10.92	18.57	1.252	273
45.056	12.35	20.03	11.16	18.81	1.252	273
45.088	14.67	22.36	13.94	21.59	1.252	273
45.120	15.66	23.35	14.64	22.28	1.252	273
45.152	15.69	23.37	14.65	22.29	1.252	273
45.184	15.62	23.30	14.70	22.34	1.252	273
45.216	13.48	21.16	14.57	22.22	1.248	272
45.248	11.66	19.35	12.75	20.39	1.248	272
45.280	11.27	18.96	11.23	18.88	1.248	272
45.312	13.14	20.82	11.85	19.49	1.248	272
45.344	15.43	23.11	14.62	22.27	1.248	272
45.376	15.82	23.50	14.65	22.29	1.248	272
45.408	15.81	23.49	14.78	22.43	1.248	272
45.440	15.94	23.62	14.85	22.49	1.248	272
45.472	15.26	22.94	14.80	22.45	1.248	272
45.504	12.26	19.94	14.30	21.95	1.248	272
45.536	11.85	19.54	11.08	18.73	1.248	272
45.568	12.20	19.89	11.22	18.87	1.248	272
45.600	14.75	22.43	14.05	21.70	1.248	272
45.632	15.84	23.52	14.63	22.28	1.248	272
45.664	16.02	23.71	14.76	22.41	1.248	272
45.696	16.02	23.70	14.74	22.39	1.252	273
45.728	14.77	22.46	14.66	22.31	1.252	273
45.760	11.82	19.50	14.20	21.85	1.252	273
45.792	11.45	19.14	11.40	19.05	1.252	273
45.824	11.80	19.48	11.07	18.71	1.252	273
45.856	14.00	21.68	12.56	20.21	1.252	273
45.888	15.57	23.25	14.69	22.34	1.252	273
45.920	15.87	23.55	14.63	22.28	1.252	273
45.952	15.88	23.56	14.65	22.29	1.252	273
45.984	15.88	23.56	14.76	22.40	1.252	273
46.016	13.99	21.68	14.81	22.45	1.252	273
46.048	11.79	19.47	12.98	20.63	1.252	273
46.080	11.86	19.55	10.95	18.60	1.252	273
46.112	12.68	20.37	11.21	18.86	1.252	273
46.144	14.78	22.46	13.77	21.42	1.252	273
46.176	15.71	23.39	14.65	22.30	1.252	273
46.208	15.94	23.62	14.73	22.38	1.252	273
46.240	15.96	23.64	14.69	22.34	1.252	273
46.272	15.31	22.99	14.68	22.32	1.252	273
46.304	12.24	19.92	14.69	22.34	1.252	273
46.336	11.54	19.22	11.95	19.60	1.252	273
46.368	11.52	19.20	11.12	18.77	1.252	273
46.400	13.76	21.45	12.64	20.28	1.252	273
46.432	15.58	23.27	14.77	22.42	1.252	273
46.464	15.84	23.52	14.67	22.32	1.252	273
46.496	15.82	23.50	14.67	22.32	1.252	273
46.528	15.86	23.55	14.74	22.39	1.252	273
46.560	13.39	21.07	14.73	22.38	1.252	273
46.592	11.66	19.35	12.97	20.61	1.252	273
46.624	11.90	19.58	11.01	18.66	1.248	272
46.656	12.80	20.49	11.39	19.04	1.248	272
46.688	14.88	22.56	14.16	21.81	1.248	272
46.720	15.84	23.53	14.69	22.34	1.248	272
46.752	15.78	23.47	14.81	22.45	1.248	272
46.784	15.86	23.54	14.74	22.39	1.248	272
46.816	14.43	22.12	14.70	22.35	1.248	272
46.848	11.68	19.36	13.41	21.05	1.248	272
46.880	11.76	19.44	11.13	18.78	1.248	272
46.912	12.76	20.44	11.47	19.11	1.248	272
46.944	15.23	22.91	14.47	22.12	1.248	272
46.976	15.98	23.67	14.80	22.45	1.248	272
47.008	15.86	23.54	14.69	22.33	1.248	272
47.040	15.83	23.52	14.69	22.34	1.248	272
47.072	15.77	23.45	14.61	22.26	1.248	272
47.104	13.12	20.80	14.70	22.34	1.243	271
47.136	11.47	19.16	12.88	20.53	1.243	271
47.168	11.39	19.07	11.29	18.93	1.243	271
47.200	12.60	20.29	11.41	19.06	1.243	271
47.232	15.18	22.86	14.56	22.21	1.243	271
47.264	15.81	23.49	14.54	22.19	1.243	271
47.296	15.87	23.55	14.56	22.21	1.243	271
47.328	15.77	23.46	14.77	22.41	1.243	271
47.360	13.45	21.14	14.80	22.45	1.243	271
47.392	11.57	19.25	12.95	20.60	1.243	271
47.424	11.48	19.17	10.96	18.61	1.243	271
47.456	12.59	20.27	11.22	18.87	1.243	271
47.488	15.05	22.73	14.08	21.73	1.243	271
47.520	16.02	23.71	14.81	22.46	1.243	271
47.552	16.06	23.74	14.74	22.39	1.248	272
47.584	15.92	23.61	14.69	22.34	1.248	272
47.616	16.00	23.68	14.61	22.26	1.248	272
47.648	14.03	21.72	14.62	22.26	1.248	272
47.680	11.63	19.32	13.27	20.92	1.248	272
47.712	11.81	19.49	11.08	18.72	1.248	272
47.744	12.64	20.32	11.11	18.75	1.248	272
47.776	14.99	22.67	13.86	21.50	1.248	272
47.808	15.89	23.57	14.66	22.30	1.248	272
47.840	15.87	23.56	14.59	22.23	1.248	272
47.872	15.86	23.54	14.80	22.44	1.248	272
47.904	15.29	22.97	14.77	22.41	1.248	272
47.936	12.24	19.93	14.75	22.39	1.248	272
47.968	11.43	19.11	12.23	19.88	1.248	272
48.000	11.57	19.25	10.94	18.59	1.248	272
48.032	13.45	21.13	12.21	19.85	1.248	272
48.064	15.50	23.19	14.61	22.26	1.248	272
48.096	15.84	23.52	14.70	22.35	1.248	272
48.128	15.85	23.53	14.71	22.36	1.248	272
48.160	15.88	23.56	14.67	22.32	1.248	272
48.192	14.97	22.66	14.72	22.37	1.248	272
48.224	11.90	19.58	14.53	22.18	1.248	272
48.256	11.65	19.34	11.79	19.44	1.248	272
48.288	11.77	19.45	11.15	18.80	1.248	272
48.320	13.86	21.54	12.61	20.25	1.248	272
48.352	15.50	23.18	14.65	22.30	1.248	272
48.384	15.91	23.59	14.59	22.24	1.248	272
48.416	15.88	23.57	14.68	22.33	1.248	272
48.448	15.88	23.57	14.75	22.40	1.248	272
48.480	13.83	21.51	14.68	22.33	1.248	272
48.512	11.86	19.55	12.95	20.60	1.248	272
48.544	11.83	19.52	10.92	18.57	1.248	272
48.576	13.20	20.88	11.87	19.52	1.248	272
48.608	15.58	23.26	14.63	22.28	1.248	272
48.640	16.11	23.79	14.77	22.42	1.248	272
48.672	15.98	23.66	14.75	22.39	1.248	272
48.704	15.77	23.45	14.63	22.28	1.248	272
48.736	15.46	23.14	14.63	22.28	1.248	272
48.768	12.37	20.05	14.61	22.25	1.248	272
48.800	11.68	19.37	12.17	19.82	1.248	272
48.832	11.65	19.34	11.17	18.82	1.248	272
48.864	13.26	20.94	12.21	19.85	1.248	272
48.896	15.50	23.18	14.65	22.29	1.248	272
48.928	15.84	23.52	14.63	22.27	1.248	272
48.960	15.74	23.42	14.77	22.41	1.248	272
48.992	15.39	23.08	14.89	22.53	1.248	272
49.024	12.61	20.30	14.76	22.41	1.248	272
49.056	11.52	19.20	12.54	20.19	1.248	272
49.088	11.08	18.77	10.93	18.58	1.248	272
49.120	12.54	20.22	11.19	18.84	1.248	272
49.152	15.14	22.82	14.22	21.86	1.248	272
49.184	15.97	23.65	14.77	22.42	1.248	272
49.216	15.94	23.63	14.79	22.44	1.248	272
49.248	15.84	23.52	14.76	22.40	1.248	272
49.280	15.76	23.45	14.71	22.36	1.248	272
49.312	13.32	21.01	14.60	22.25	1.248	272
49.344	11.73	19.41	12.38	20.03	1.248	272
49.376	11.59	19.27	11.26	18.90	1.248	272
49.408	13.09	20.78	12.29	19.94	1.248	272
49.440	15.36	23.04	14.67	22.31	1.248	272
49.472	15.88	23.57	14.68	22.33	1.248	272
49.504	15.82	23.50	14.68	22.33	1.248	272
49.536	15.81	23.50	14.78	22.43	1.248	272
49.568	14.52	22.20	14.81	22.45	1.248	272
49.600	11.66	19.34	13.94	21.59	1.248	272
49.632	11.46	19.15	11.38	19.03	1.248	272
49.664	11.54	19.22	11.13	18.78	1.248	272
49.696	13.92	21.60	12.58	20.23	1.248	272
49.728	15.64	23.32	14.73	22.38	1.248	272
49.760	15.81	23.49	14.78	22.43	1.248	272
49.792	15.69	23.38	14.65	22.29	1.248	272
49.824	15.89	23.58	14.60	22.24	1.248	272
49.856	13.71	21.39	14.65	22.30	1.248	272
49.888	11.50	19.18	13.64	21.29	1.248	272
49.920	11.40	19.08	11.20	18.85	1.248	272
49.952	11.61	19.30	10.99	18.64	1.248	272
49.984	13.71	21.39	12.52	20.17	1.248	272
50.016	15.38	23.06	14.72	22.36	1.248	272
50.048	15.84	23.52	14.76	22.41	1.248	272
50.080	15.73	23.41	14.72	22.37	1.248	272
50.112	15.78	23.47	14.73	22.37	1.248	272
50.144	13.98	21.66	14.66	22.31	1.248	272
50.176	11.44	19.13	13.10	20.75	1.248	272
50.208	11.53	19.21	10.98	18.63	1.248	272
50.240	12.71	20.40	11.52	19.17	1.248	272
50.272	15.23	22.91	14.81	22.46	1.248	272
50.304	15.96	23.64	14.80	22.45	1.248	272
50.336	15.85	23.53	14.65	22.29	1.248	272
50.368	15.82	23.50	14.60	22.25	1.248	272
50.400	15.67	23.35	14.67	22.32	1.248	272
50.432	12.86	20.55	14.81	22.46	1.248	272
50.464	11.53	19.21	13.05	20.69	1.248	272
50.496	11.71	19.39	10.98	18.63	1.248	272
50.528	12.28	19.96	10.97	18.62	1.248	272
50.560	14.71	22.39	13.97	21.62	1.248	272
50.592	15.73	23.41	14.67	22.31	1.248	272
50.624	15.68	23.36	14.76	22.41	1.248	272
50.656	15.83	23.52	14.73	22.38	1.248	272
50.688	14.27	21.95	14.73	22.38	1.248	272
50.720	11.46	19.14	13.60	21.25	1.248	272
50.752	11.18	18.86	10.90	18.54	1.248	272
50.784	12.02	19.70	11.05	18.69	1.248	272
50.816	14.59	22.27	13.64	21.29	1.248	272
50.848	15.89	23.57	14.73	22.38	1.248	272
50.880	15.97	23.65	14.64	22.29	1.248	272
50.912	15.75	23.43	14.66	22.31	1.248	272
50.944	15.80	23.48	14.76	22.41	1.248	272
50.976	14.90	22.58	14.79	22.43	1.248	272
51.008	11.81	19.49	13.86	21.50	1.248	272
51.040	11.62	19.30	11.19	18.84	1.248	272
51.072	12.37	20.05	11.00	18.65	1.248	272
51.104	14.86	22.54	14.12	21.77	1.248	272
51.136	15.81	23.49	14.71	22.36	1.248	272
51.168	15.80	23.49	14.72	22.37	1.248	272
51.200	15.78	23.46	14.68	22.32	1.248	272
51.232	15.10	22.79	14.61	22.26	1.248	272
51.264	12.00	19.69	14.44	22.09	1.248	272
51.296	11.30	18.98	11.86	19.51	1.248	272
51.328	11.37	19.05	11.28	18.92	1.248	272
51.360	13.57	21.25	12.66	20.31	1.248	272
51.392	15.61	23.29	14.76	22.41	1.248	272
51.424	15.72	23.40	14.69	22.34	1.248	272
51.456	15.79	23.48	14.60	22.25	1.248	272
51.488	15.68	23.37	14.62	22.27	1.248	272
51.520	13.61	21.29	14.76	22.41	1.248	272
51.552	11.51	19.19	13.23	20.87	1.248	272
51.584	11.25	18.93	10.96	18.61	1.248	272
51.616	11.87	19.55	11.03	18.68	1.248	272
51.648	14.27	21.95	13.66	21.31	1.248	272
51.680	15.47	23.15	14.71	22.36	1.248	272
51.712	15.69	23.38	14.76	22.41	1.248	272
51.744	15.53	23.22	14.76	22.41	1.248	272
51.776	15.14	22.82	14.70	22.35	1.248	272
51.808	11.99	19.68	14.72	22.37	1.248	272
51.840	11.12	18.80	12.08	19.72	1.248	272
51.872	11.02	18.70	11.03	18.68	1.248	272
51.904	13.44	21.12	12.65	20.29	1.248	272
51.936	15.16	22.84	14.80	22.44	1.248	272
51.968	15.30	22.98	14.78	22.43	1.248	272
52.000	15.25	22.93	14.65	22.30	1.248	272
52.032	15.26	22.94	14.69	22.34	1.248	272
52.064	14.81	22.49	14.76	22.41	1.248	272
52.096	11.68	19.37	14.83	22.48	1.248	272
52.128	10.50	18.19	12.47	20.12	1.248	272
52.160	10.83	18.51	11.08	18.72	1.248	272
52.192	12.04	19.73	11.48	19.13	1.248	272
52.224	14.55	22.23	14.70	22.35	1.248	272
52.256	15.03	22.71	14.81	22.45	1.248	272
52.288	14.99	22.67	14.78	22.43	1.248	272
52.320	14.85	22.53	14.76	22.41	1.248	272
52.352	12.73	20.42	14.77	22.41	1.248	272
52.384	10.76	18.44	12.86	20.51	1.248	272
52.416	10.25	17.93	10.95	18.60	1.248	272
52.448	11.48	19.17	11.30	18.94	1.248	272
52.480	14.17	21.86	14.37	22.01	1.248	272
52.512	14.91	22.59	14.87	22.52	1.248	272
52.544	14.89	22.58	14.90	22.55	1.248	272
52.576	14.95	22.64	14.87	22.52	1.248	272
52.608	14.99	22.67	14.95	22.59	1.248	272
52.640	13.25	20.93	14.83	22.48	1.248	272
52.672	10.43	18.12	13.45	21.10	1.248	272
52.704	10.53	18.22	11.14	18.79	1.248	272
52.736	11.51	19.19	11.02	18.67	1.248	272
52.768	14.24	21.93	13.86	21.51	1.248	272
52.800	14.84	22.52	14.95	22.60	1.248	272
52.832	14.71	22.39	14.97	22.62	1.248	272
52.864	14.76	22.45	14.78	22.43	1.248	272
52.896	14.47	22.15	14.81	22.45	1.248	272
52.928	11.42	19.10	14.87	22.52	1.248	272
52.960	10.20	17.88	12.51	20.16	1.248	272
52.992	10.15	17.83	11.26	18.90	1.248	272
53.024	11.65	19.33	11.30	18.94	1.248	272
53.056	14.35	22.03	14.43	22.08	1.248	272
53.088	14.75	22.43	14.80	22.45	1.248	272
53.120	14.70	22.38	14.84	22.49	1.248	272
53.152	14.63	22.32	14.94	22.58	1.248	272
53.184	14.12	21.80	14.91	22.56	1.252	273
53.216	10.91	18.60	14.64	22.29	1.252	273
53.248	10.25	17.93	11.92	19.56	1.252	273
53.280	10.35	18.03	11.18	18.83	1.252	273
53.312	12.38	20.06	12.26	19.91	1.252	273
53.344	14.47	22.15	14.80	22.45	1.252	273
53.376	14.78	22.47	14.91	22.55	1.252	273
53.408	14.71	22.39	14.83	22.48	1.252	273
53.440	14.60	22.28	14.88	22.53	1.252	273
53.472	13.67	21.36	14.90	22.54	1.252	273
53.504	10.61	18.29	14.07	21.71	1.252	273
53.536	10.58	18.26	11.41	19.06	1.252	273
53.568	11.42	19.10	11.50	19.15	1.252	273
53.600	14.33	22.01	14.50	22.15	1.252	273
53.632	14.68	22.36	14.86	22.50	1.252	273
53.664	14.73	22.41	14.94	22.59	1.252	273
53.696	14.70	22.39	15.01	22.66	1.252	273
53.728	14.60	22.28	14.93	22.58	1.252	273
53.760	11.67	19.35	14.85	22.50	1.252	273
53.792	10.17	17.85	12.62	20.27	1.252	273
53.824	10.41	18.09	11.12	18.77	1.252	273
53.856	11.40	19.09	11.41	19.06	1.252	273
53.888	14.16	21.84	14.50	22.14	1.252	273
53.920	14.63	22.32	15.01	22.65	1.252	273
53.952	14.55	22.23	14.84	22.49	1.252	273
53.984	14.55	22.23	14.85	22.50	1.252	273
54.016	12.48	20.16	14.96	22.60	1.252	273
54.048	10.17	17.85	13.11	20.76	1.252	273
54.080	10.07	17.75	11.10	18.74	1.252	273
54.112	11.31	18.99	11.19	18.84	1.252	273
54.144	13.98	21.66	14.05	21.70	1.252	273
54.176	14.60	22.28	14.83	22.48	1.252	273
54.208	14.63	22.31	14.90	22.55	1.252	273
54.240	14.68	22.36	15.08	22.73	1.252	273
54.272	14.57	22.25	15.05	22.69	1.252	273
54.304	13.24	20.92	14.94	22.59	1.252	273
54.336	10.41	18.09	13.61	21.26	1.252	273
54.368	10.61	18.29	11.45	19.09	1.252	273
54.400	11.78	19.47	11.61	19.26	1.252	273
54.432	14.27	21.95	14.85	22.50	1.252	273
54.464	14.72	22.40	14.99	22.64	1.252	273
54.496	14.65	22.33	14.86	22.50	1.252	273
54.528	14.56	22.24	14.87	22.52	1.252	273
54.560	13.25	20.93	14.88	22.53	1.252	273
54.592	10.57	18.25	13.45	21.09	1.252	273
54.624	10.21	17.89	11.11	18.75	1.252	273
54.656	11.12	18.80	11.17	18.82	1.252	273
54.688	13.76	21.45	13.66	21.31	1.252	273
54.720	14.57	22.26	14.95	22.60	1.252	273
54.752	14.65	22.33	15.00	22.65	1.252	273
54.784	14.64	22.32	15.04	22.69	1.252	273
54.816	14.57	22.25	15.02	22.67	1.252	273
54.848	11.42	19.10	15.01	22.65	1.252	273
54.880	10.53	18.22	12.15	19.80	1.252	273
54.912	10.33	18.02	11.07	18.71	1.252	273
54.944	12.16	19.84	11.97	19.62	1.252	273
54.976	14.38	22.07	15.05	22.70	1.252	273
55.008	14.61	22.29	15.05	22.70	1.252	273
55.040	14.76	22.44	14.99	22.64	1.252	273
55.072	14.68	22.36	14.92	22.57	1.252	273
55.104	12.48	20.16	14.92	22.57	1.252	273
55.136	10.31	18.00	13.12	20.77	1.252	273
55.168	10.38	18.06	11.37	19.02	1.252	273
55.200	11.88	19.57	12.06	19.70	1.252	273
55.232	14.44	22.12	15.03	22.68	1.252	273
55.264	14.59	22.27	14.90	22.55	1.252	273
55.296	14.69	22.37	14.91	22.56	1.252	273
55.328	14.52	22.21	14.97	22.62	1.252	273
55.360	14.20	21.89	14.97	22.62	1.252	273
55.392	11.26	18.94	15.01	22.65	1.252	273
55.424	10.44	18.12	11.80	19.45	1.252	273
55.456	10.41	18.09	11.25	18.89	1.252	273
55.488	12.66	20.35	12.46	20.11	1.252	273
55.520	14.57	22.25	15.01	22.66	1.257	274
55.552	14.68	22.36	15.06	22.71	1.257	274
55.584	14.67	22.35	15.07	22.71	1.257	274
55.616	14.54	22.22	14.97	22.62	1.257	274
55.648	11.81	19.49	14.92	22.57	1.257	274
55.680	10.52	18.21	12.04	19.68	1.257	274
55.712	10.41	18.09	11.30	18.94	1.257	274
55.744	12.78	20.46	12.83	20.48	1.257	274
55.776	14.62	22.30	15.17	22.82	1.257	274
55.808	14.72	22.40	15.01	22.66	1.257	274
55.840	14.62	22.31	14.93	22.58	1.257	274
55.872	14.74	22.42	14.97	22.62	1.257	274
55.904	13.60	21.29	15.09	22.73	1.257	274
55.936	10.81	18.49	14.51	22.16	1.257	274
55.968	10.49	18.18	11.48	19.13	1.257	274
56.000	10.94	18.62	11.37	19.02	1.257	274
56.032	13.94	21.63	14.00	21.65	1.257	274
56.064	14.68	22.36	14.92	22.57	1.257	274
56.096	14.69	22.37	14.92	22.57	1.257	274
56.128	14.70	22.38	15.06	22.70	1.257	274
56.160	13.23	20.91	15.07	22.71	1.257	274
56.192	10.34	18.02	14.06	21.71	1.257	274
56.224	10.37	18.05	11.49	19.14	1.257	274
56.256	11.05	18.73	11.41	19.06	1.257	274
56.288	13.96	21.65	13.92	21.57	1.257	274
56.320	14.80	22.48	15.16	22.80	1.257	274
56.352	14.92	22.60	15.05	22.69	1.257	274
56.384	14.81	22.49	15.03	22.67	1.257	274
56.416	14.78	22.46	14.95	22.59	1.257	274
56.448	12.88	20.57	14.95	22.60	1.257	274
56.480	10.71	18.40	12.66	20.31	1.257	274
56.512	10.76	18.44	11.39	19.04	1.257	274
56.544	12.82	20.50	12.79	20.44	1.257	274
56.576	14.65	22.34	15.09	22.74	1.257	274
56.608	14.79	22.47	14.97	22.62	1.257	274
56.640	14.83	22.51	14.96	22.61	1.257	274
56.672	14.86	22.55	14.98	22.63	1.257	274
56.704	12.05	19.73	14.99	22.63	1.257	274
56.736	10.30	17.99	13.07	20.72	1.257	274
56.768	10.38	18.06	11.56	19.21	1.257	274
56.800	11.96	19.64	11.98	19.63	1.257	274
56.832	14.51	22.20	14.95	22.59	1.257	274
56.864	14.66	22.34	14.88	22.52	1.257	274
56.896	14.79	22.47	14.98	22.63	1.257	274
56.928	14.71	22.40	15.05	22.69	1.257	274
56.960	12.43	20.11	15.08	22.73	1.257	274
56.992	10.73	18.42	12.69	20.34	1.257	274
57.024	10.43	18.11	11.31	18.96	1.257	274
57.056	11.91	19.59	11.88	19.53	1.257	274
57.088	14.46	22.14	14.99	22.64	1.257	274
57.120	14.70	22.38	15.21	22.86	1.257	274
57.152	14.76	22.44	15.13	22.78	1.257	274
57.184	14.68	22.36	14.95	22.60	1.257	274
57.216	13.77	21.45	14.95	22.60	1.257	274
57.248	10.53	18.21	14.00	21.64	1.257	274
57.280	10.61	18.29	11.61	19.26	1.257	274
57.312	11.59	19.27	11.78	19.43	1.257	274
57.344	14.45	22.13	15.04	22.69	1.257	274
57.376	14.78	22.47	15.10	22.75	1.257	274
57.408	14.83	22.52	15.07	22.72	1.257	274
57.440	14.82	22.50	15.04	22.69	1.257	274
57.472	14.55	22.23	15.01	22.66	1.257	274
57.504	11.34	19.02	15.06	22.71	1.257	274
57.536	10.67	18.35	11.98	19.63	1.257	274
57.568	10.59	18.27	11.33	18.98	1.257	274
57.600	12.67	20.35	12.60	20.24	1.257	274
57.632	14.71	22.39	15.00	22.65	1.257	274
57.664	14.86	22.54	15.00	22.65	1.257	274
57.696	14.85	22.53	15.06	22.70	1.257	274
57.728	14.68	22.36	15.08	22.73	1.257	274
57.760	11.36	19.04	15.04	22.69	1.257	274
57.792	10.79	18.47	11.73	19.38	1.257	274
57.824	10.80	18.48	11.36	19.01	1.257	274
57.856	13.36	21.04	12.91	20.56	1.257	274
57.888	14.83	22.52	15.08	22.73	1.257	274
57.920	14.86	22.54	15.13	22.78	1.257	274
57.952	14.82	22.50	15.08	22.73	1.257	274
57.984	14.89	22.58	14.94	22.59	1.257	274
58.016	13.28	20.96	14.97	22.61	1.257	274
58.048	10.68	18.36	13.71	21.36	1.257	274
58.080	10.48	18.17	11.58	19.23	1.257	274
58.112	11.71	19.39	11.59	19.24	1.257	274
58.144	14.57	22.26	14.92	22.56	1.257	274
58.176	14.79	22.47	15.09	22.74	1.257	274
58.208	14.75	22.43	15.05	22.69	1.257	274
58.240	14.76	22.44	15.03	22.68	1.257	274
58.272	12.77	20.45	15.08	22.73	1.257	274
58.304	10.33	18.02	13.93	21.58	1.257	274
58.336	10.59	18.27	11.59	19.24	1.257	274
58.368	11.43	19.11	11.35	19.00	1.257	274
58.400	14.15	21.83	13.80	21.44	1.257	274
58.432	14.82	22.50	14.97	22.62	1.257	274
58.464	14.71	22.39	15.04	22.69	1.257	274
58.496	14.81	22.50	15.10	22.75	1.257	274
58.528	14.83	22.51	15.04	22.68	1.257	274
58.560	11.87	19.55	15.03	22.67	1.257	274
58.592	10.66	18.34	11.85	19.49	1.257	274
58.624	10.63	18.31	11.52	19.17	1.257	274
58.656	13.16	20.85	13.12	20.77	1.257	274
58.688	14.73	22.42	15.07	22.72	1.257	274
58.720	14.77	22.46	15.07	22.72	1.257	274
58.752	14.74	22.42	14.94	22.59	1.257	274
58.784	14.66	22.34	14.95	22.59	1.252	273
58.816	12.03	19.71	14.90	22.55	1.252	273
58.848	10.52	18.21	13.32	20.96	1.252	273
58.880	10.44	18.12	11.33	18.98	1.252	273
58.912	11.60	19.28	11.63	19.28	1.252	273
58.944	14.42	22.10	15.03	22.68	1.252	273
58.976	14.75	22.44	15.01	22.66	1.252	273
59.008	14.75	22.43	14.90	22.55	1.252	273
59.040	14.74	22.42	14.97	22.61	1.252	273
59.072	12.99	20.67	15.03	22.68	1.252	273
59.104	10.40	18.09	13.60	21.25	1.252	273
59.136	10.35	18.03	11.49	19.14	1.252	273
59.168	11.23	18.91	11.52	19.17	1.252	273
59.200	14.09	21.77	14.08	21.73	1.252	273
59.232	14.75	22.43	14.93	22.58	1.252	273
59.264	14.74	22.42	14.99	22.63	1.257	274
59.296	14.63	22.31	15.01	22.65	1.257	274
59.328	14.07	21.75	15.01	22.65	1.257	274
59.360	10.71	18.39	14.52	22.16	1.257	274
59.392	10.61	18.29	11.51	19.16	1.257	274
59.424	11.51	19.19	11.50	19.15	1.257	274
59.456	14.42	22.10	14.88	22.53	1.257	274
59.488	14.69	22.37	15.08	22.73	1.257	274
59.520	14.75	22.43	15.04	22.69	1.257	274
59.552	14.62	22.30	14.99	22.64	1.257	274
59.584	14.46	22.14	14.85	22.50	1.257	274
59.616	11.14	18.82	14.83	22.48	1.257	274
59.648	10.20	17.88	11.98	19.63	1.257	274
59.680	10.35	18.03	11.28	18.92	1.257	274
59.712	12.41	20.09	12.26	19.90	1.257	274
59.744	14.55	22.23	15.00	22.64	1.252	273
59.776	14.68	22.36	14.98	22.62	1.252	273
59.808	14.60	22.28	14.90	22.55	1.252	273
59.840	14.37	22.06	14.96	22.61	1.252	273
59.872	10.98	18.67	14.74	22.38	1.252	273
59.904	10.52	18.21	11.38	19.03	1.252	273
59.936	10.81	18.49	11.10	18.74	1.252	273
59.968	13.20	20.88	12.77	20.42	1.252	273
60.000	14.64	22.32	14.91	22.56	1.252	273
60.032	14.61	22.29	14.90	22.55	1.252	273
60.064	14.63	22.32	15.06	22.71	1.252	273
60.096	14.63	22.31	15.07	22.72	1.252	273
60.128	13.68	21.36	14.96	22.60	1.252	273
60.160	10.51	18.19	14.06	21.70	1.252	273
60.192	10.50	18.19	11.43	19.08	1.257	274
60.224	11.41	19.10	11.59	19.24	1.257	274
60.256	14.28	21.97	14.92	22.57	1.257	274
60.288	14.55	22.23	14.98	22.62	1.257	274
60.320	14.61	22.30	15.01	22.65	1.257	274
60.352	14.56	22.24	14.92	22.57	1.257	274
60.384	12.53	20.22	14.89	22.54	1.257	274
60.416	10.33	18.02	13.53	21.18	1.257	274
60.448	10.23	17.91	11.28	18.92	1.257	274
60.480	11.41	19.09	11.38	19.03	1.257	274
60.512	14.06	21.74	14.32	21.97	1.257	274
60.544	14.54	22.22	15.01	22.66	1.257	274
60.576	14.55	22.23	14.88	22.53	1.257	274
60.608	14.55	22.23	14.89	22.53	1.257	274
60.640	14.52	22.20	14.97	22.62	1.257	274
60.672	11.45	19.13	14.93	22.58	1.257	274
60.704	10.18	17.86	12.26	19.91	1.257	274
60.736	10.46	18.14	11.49	19.14	1.257	274
60.768	12.90	20.58	12.73	20.37	1.257	274
60.800	14.55	22.24	14.86	22.50	1.257	274
60.832	14.68	22.36	14.82	22.47	1.257	274
60.864	14.60	22.28	14.94	22.59	1.257	274
60.896	14.46	22.14	15.05	22.70	1.257	274
60.928	12.02	19.70	15.02	22.66	1.257	274
60.960	10.23	17.91	13.24	20.89	1.257	274
60.992	10.26	17.94	11.26	18.90	1.257	274
61.024	11.65	19.33	11.72	19.37	1.257	274
61.056	14.37	22.05	14.96	22.60	1.257	274
61.088	14.58	22.27	15.01	22.65	1.257	274
61.120	14.59	22.27	15.06	22.70	1.257	274
61.152	14.62	22.30	14.91	22.55	1.252	273
61.184	12.36	20.04	14.89	22.54	1.252	273
61.216	10.50	18.19	12.61	20.26	1.252	273
61.248	10.43	18.11	11.26	18.90	1.252	273
61.280	12.11	19.79	12.05	19.69	1.252	273
61.312	14.50	22.19	15.02	22.67	1.252	273
61.344	14.57	22.25	14.95	22.60	1.252	273
61.376	14.51	22.19	14.96	22.60	1.252	273
61.408	14.49	22.17	14.97	22.62	1.252	273
61.440	12.05	19.74	14.95	22.60	1.252	273
61.472	10.57	18.25	12.39	20.04	1.252	273
61.504	10.49	18.18	11.56	19.21	1.252	273
61.536	13.12	20.80	13.35	20.99	1.252	273
61.568	14.58	22.27	15.00	22.65	1.252	273
61.600	14.63	22.31	14.90	22.55	1.257	274
61.632	14.57	22.25	14.82	22.47	1.257	274
61.664	14.62	22.30	14.86	22.51	1.257	274
61.696	12.25	19.94	14.91	22.56	1.257	274
61.728	10.32	18.01	13.07	20.72	1.257	274
61.760	10.06	17.74	11.26	18.90	1.257	274
61.792	11.10	18.78	11.30	18.94	1.257	274
61.824	13.89	21.57	14.14	21.79	1.257	274
61.856	14.52	22.20	14.87	22.52	1.257	274
61.888	14.56	22.24	14.98	22.63	1.257	274
61.920	14.49	22.17	14.99	22.63	1.257	274
61.952	12.88	20.56	14.99	22.64	1.257	274
61.984	10.60	18.28	12.99	20.64	1.257	274
62.016	10.41	18.09	11.08	18.72	1.257	274
62.048	11.90	19.59	11.56	19.21	1.257	274
62.080	14.22	21.90	14.75	22.39	1.252	273
62.112	14.63	22.31	15.01	22.66	1.252	273
62.144	14.59	22.27	14.96	22.60	1.252	273
62.176	14.67	22.35	14.89	22.54	1.252	273
62.208	14.50	22.18	14.86	22.50	1.252	273
62.240	11.07	18.75	14.92	22.57	1.252	273
62.272	10.33	18.02	12.01	19.65	1.252	273
62.304	10.60	18.28	11.55	19.20	1.252	273
62.336	13.52	21.21	13.63	21.28	1.252	273
62.368	14.59	22.28	14.91	22.55	1.252	273
62.400	9.65	17.33	0.94	8.59	1.252	273
62.432	-8.62	-0.94	-0.01	7.64	1.252	273
62.464	-5.78	1.91	-0.01	7.64	1.252	273
62.496	3.54	11.22	-0.02	7.62	1.252	273
62.528	3.08	10.77	0.01	7.66	1.014	221
62.560	-1.68	6.00	-0.01	7.63	1.014	221
62.592	-1.31	6.37	-0.00	7.64	1.014	221
62.624	0.80	8.48	0.00	7.65	1.014	221
62.656	0.31	7.99	-0.01	7.63	1.014	221
62.688	-0.69	6.99	0.02	7.67	1.014	221
62.720	-0.04	7.64	-0.01	7.64	1.014	221
62.752	0.33	8.01	0.00	7.65	1.014	221
62.784	-0.22	7.46	0.00	7.65	1.014	221
62.816	-0.21	7.48	-0.01	7.64	1.014	221
62.848	0.11	7.79	0.02	7.67	1.014	221
62.880	-0.03	7.65	-0.01	7.64	1.014	221
62.912	-0.17	7.52	0.01	7.65	1.014	221
62.944	0.10	7.78	-0.00	7.65	1.014	221
62.976	0.01	7.69	-0.00	7.64	1.014	221
63.008	-0.15	7.53	0.03	7.67	0.009	2
63.040	-0.00	7.68	-0.01	7.64	0.009	2
63.072	-0.00	7.68	0.00	7.65	0.009	2
63.104	-0.10	7.58	0.01	7.65	0.009	2
63.136	-0.04	7.64	-0.00	7.65	0.009	2
63.168	-0.03	7.65	0.02	7.67	0.009	2
63.200	-0.04	7.64	-0.01	7.64	0.009	2
63.232	-0.07	7.62	0.01	7.66	0.009	2
63.264	-0.05	7.63	-0.00	7.65	0.009	2
63.296	-0.07	7.62	-0.00	7.64	0.009	2
63.328	-0.05	7.63	0.02	7.67	0.009	2
63.360	-0.03	7.65	-0.01	7.64	0.009	2
63.392	-0.04	7.64	0.01	7.66	0.009	2
63.424	-0.05	7.63	0.00	7.65	0.009	2
63.456	-0.05	7.64	0.00	7.65	0.009	2
63.488	-0.07	7.62	0.03	7.67	0.000	0
63.520	-0.05	7.63	-0.01	7.64	0.000	0
63.552	-0.07	7.61	0.01	7.66	0.000	0
63.584	-0.04	7.64	0.00	7.65	0.000	0
63.616	-0.05	7.64	0.00	7.65	0.000	0
63.648	-0.04	7.64	0.02	7.67	0.000	0
63.680	-0.09	7.60	-0.01	7.64	0.000	0
63.712	-0.02	7.66	0.02	7.67	0.000	0
63.744	-0.10	7.58	0.00	7.65	0.000	0
63.776	0.01	7.69	0.00	7.65	0.000	0
63.808	-0.10	7.58	0.02	7.67	0.000	0
63.840	0.01	7.69	-0.01	7.64	0.000	0
63.872	-0.08	7.60	0.02	7.67	0.000	0
63.904	-0.06	7.63	0.00	7.65	0.000	0
63.936	-0.08	7.61	0.00	7.65	0.000	0
63.968	-0.07	7.61	0.02	7.67	0.000	0
64.000	-0.10	7.58	-0.01	7.64	0.000	0
64.032	-0.13	7.55	0.02	7.66	0.000	0
64.064	0.00	7.69	0.00	7.65	0.000	0
64.096	-0.04	7.64	0.00	7.65	0.000	0
64.128	-0.04	7.65	0.02	7.67	0.000	0
64.160	-0.05	7.63	-0.01	7.64	0.000	0
64.192	-0.05	7.64	0.02	7.67	0.000	0
64.224	-0.04	7.64	-0.00	7.65	0.000	0
64.256	0.01	7.69	0.01	7.65	0.000	0
64.288	-0.02	7.66	0.02	7.67	0.000	0
64.320	-0.15	7.53	-0.01	7.64	0.000	0
64.352	-0.05	7.63	0.02	7.66	0.000	0
64.384	-0.03	7.65	-0.00	7.65	0.000	0
