Tempo(s)    P0(KPa) P0+Coluna(KPa)  P1(KPa) P1+Coluna(KPa)
0.003	-2.22	-2.22	-2.22	-2.22
0.030	-2.22	-2.22	-2.22	-2.22
0.060	11.14	11.14	-2.22	-2.22
0.090	11.14	11.14	7.66	7.66
0.120	11.14	11.14	7.66	7.66
0.149	11.11	11.11	7.66	7.66
0.179	11.11	11.11	7.53	7.53
0.209	11.11	11.11	7.53	7.53
0.239	11.17	11.17	7.53	7.53
0.269	11.17	11.17	7.66	7.66
0.298	11.17	11.17	7.66	7.66
0.328	11.14	11.14	7.66	7.66
0.358	11.14	11.14	7.57	7.57
0.388	11.14	11.14	7.57	7.57
0.417	11.15	11.15	7.57	7.57
0.447	11.15	11.15	7.59	7.59
0.477	11.15	11.15	7.59	7.59
0.507	11.15	11.15	7.59	7.59
0.536	11.15	11.15	7.67	7.67
0.566	11.15	11.15	7.67	7.67
0.596	11.14	11.14	7.67	7.67
0.626	0.00	11.14	-0.14	7.52
0.655	0.00	11.14	-0.14	7.52
0.685	0.00	11.15	-0.14	7.52
0.715	0.00	11.15	-0.01	7.66
0.744	0.00	11.15	-0.01	7.66
0.774	-0.00	11.14	-0.01	7.66
0.804	-0.00	11.14	-0.10	7.57
0.834	-0.00	11.14	-0.10	7.57
0.864	-0.01	11.14	-0.10	7.57
0.893	-0.01	11.14	-0.07	7.60
0.923	-0.01	11.14	-0.07	7.60
0.953	-0.01	11.14	-0.07	7.60
0.983	-0.01	11.14	-0.00	7.67
1.013	-0.01	11.14	-0.00	7.67
1.042	-0.01	11.14	-0.00	7.67
1.072	-0.01	11.14	-0.14	7.53
1.102	-0.01	11.14	-0.14	7.53
1.132	-0.01	11.14	-0.14	7.53
1.161	-0.01	11.14	-0.00	7.66
1.191	-0.01	11.14	-0.00	7.66
1.221	-0.01	11.13	-0.00	7.66
1.251	-0.01	11.13	-0.10	7.57
1.281	-0.01	11.13	-0.10	7.57
1.310	-0.01	11.13	-0.10	7.57
1.340	-0.01	11.13	-0.07	7.60
1.370	-0.01	11.13	-0.07	7.60
1.400	-0.01	11.13	-0.07	7.60
1.429	-0.01	11.13	-0.00	7.66
1.459	-0.01	11.13	-0.00	7.66
1.489	-0.01	11.13	-0.00	7.66
1.519	-0.01	11.13	-0.15	7.52
1.549	-0.01	11.13	-0.15	7.52
1.578	-0.01	11.13	-0.15	7.52
1.608	-0.01	11.13	0.00	7.67
1.638	-0.01	11.13	0.00	7.67
1.668	-0.01	11.13	0.00	7.67
1.697	-0.01	11.13	-0.11	7.56
1.727	-0.01	11.13	-0.11	7.56
1.757	-0.01	11.13	-0.11	7.56
1.787	-0.01	11.13	-0.06	7.60
1.817	-0.01	11.13	-0.06	7.60
1.846	-0.02	11.13	-0.06	7.60
1.876	-0.02	11.13	-0.01	7.66
1.906	-0.02	11.13	-0.01	7.66
1.936	-0.02	11.13	-0.01	7.66
1.965	-0.02	11.13	-0.15	7.52
1.995	-0.02	11.13	-0.15	7.52
2.025	-0.02	11.13	-0.15	7.52
2.055	-0.02	11.13	0.00	7.67
2.085	-0.02	11.13	0.00	7.67
2.114	-0.02	11.13	0.00	7.67
2.144	-0.02	11.13	-0.11	7.56
2.174	-0.02	11.13	-0.11	7.56
2.203	-0.02	11.13	-0.11	7.56
2.233	-0.02	11.13	-0.06	7.61
2.263	-0.02	11.13	-0.06	7.61
2.293	-0.02	11.13	-0.06	7.61
2.323	-0.02	11.13	-0.01	7.65
2.352	-0.02	11.13	-0.01	7.65
2.382	-0.02	11.12	-0.01	7.65
2.412	-0.02	11.12	-0.14	7.53
2.442	-0.02	11.12	-0.14	7.53
2.471	-0.02	11.13	-0.14	7.53
2.501	-0.02	11.13	0.00	7.67
2.531	-0.02	11.13	0.00	7.67
2.561	-0.02	11.13	0.00	7.67
2.591	-0.02	11.13	-0.10	7.57
2.620	-0.02	11.13	-0.10	7.57
2.650	-0.02	11.12	-0.10	7.57
2.680	-0.02	11.12	-0.05	7.61
2.710	-0.02	11.12	-0.05	7.61
2.739	-0.02	11.12	-0.05	7.61
2.769	-0.02	11.12	-0.02	7.65
2.799	-0.02	11.12	-0.02	7.65
2.829	-0.02	11.13	-0.02	7.65
2.859	-0.02	11.13	-0.14	7.52
2.888	-0.02	11.13	-0.14	7.52
2.918	-0.02	11.12	-0.14	7.52
2.948	-0.02	11.12	0.00	7.67
2.978	-0.02	11.12	0.00	7.67
3.007	-0.02	11.12	0.00	7.67
3.037	-0.02	11.12	-0.10	7.56
3.067	-0.02	11.12	-0.10	7.56
3.097	-0.02	11.12	-0.10	7.56
3.127	-0.02	11.12	-0.05	7.62
3.156	-0.02	11.12	-0.05	7.62
3.186	1.89	13.03	-0.05	7.62
3.216	1.89	13.03	-0.02	7.65
3.246	1.89	13.03	-0.02	7.65
3.275	31.36	42.50	-0.02	7.65
3.305	31.36	42.50	0.08	7.75
3.335	31.36	42.50	0.08	7.75
3.365	32.82	43.97	0.08	7.75
3.394	32.82	43.97	0.00	7.67
3.424	32.82	43.97	0.00	7.67
3.454	22.40	33.54	0.00	7.67
3.484	22.40	33.54	-0.11	7.56
3.514	22.40	33.54	-0.11	7.56
3.543	29.53	40.68	-0.11	7.56
3.573	29.53	40.68	-0.05	7.62
3.603	29.53	40.68	-0.05	7.62
3.633	25.66	36.80	-0.05	7.62
3.662	25.66	36.80	-0.02	7.64
3.692	25.66	36.80	-0.02	7.64
3.722	26.30	37.45	-0.02	7.64
3.752	26.30	37.45	-0.14	7.52
3.781	26.30	37.45	-0.14	7.52
3.811	26.99	38.13	-0.14	7.52
3.841	26.99	38.13	0.00	7.67
3.871	26.99	38.13	0.00	7.67
3.901	26.43	37.57	0.00	7.67
3.930	26.43	37.57	-0.11	7.55
3.960	26.43	37.57	-0.11	7.55
3.990	26.63	37.77	-0.11	7.55
4.020	26.63	37.77	-0.04	7.62
4.049	26.63	37.77	-0.04	7.62
4.079	26.37	37.52	-0.04	7.62
4.109	26.37	37.52	-0.03	7.64
4.139	26.37	37.52	-0.03	7.64
4.169	26.49	37.64	-0.03	7.64
4.198	26.49	37.64	-0.14	7.53
4.228	26.49	37.64	-0.14	7.53
4.258	26.61	37.75	-0.14	7.53
4.288	26.61	37.75	0.01	7.68
4.317	26.61	37.75	0.01	7.68
4.347	26.73	37.88	0.01	7.68
4.377	26.73	37.88	-0.11	7.55
4.407	26.73	37.88	-0.11	7.55
4.436	26.54	37.69	-0.11	7.55
4.466	26.54	37.69	-0.04	7.63
4.496	26.54	37.69	-0.04	7.63
4.526	26.48	37.62	-0.04	7.63
4.556	26.48	37.62	-0.03	7.64
4.585	26.48	37.62	-0.03	7.64
4.615	26.57	37.71	-0.03	7.64
4.645	26.57	37.71	-0.14	7.53
4.675	26.57	37.71	-0.14	7.53
4.704	26.54	37.68	-0.14	7.53
4.734	26.54	37.68	0.01	7.68
4.764	26.54	37.68	0.01	7.68
4.794	26.69	37.84	0.01	7.68
4.823	26.69	37.84	-0.11	7.55
4.853	26.69	37.84	-0.11	7.55
4.883	26.51	37.65	-0.11	7.55
4.913	26.51	37.65	-0.04	7.63
4.943	26.51	37.65	-0.04	7.63
4.972	26.55	37.70	-0.04	7.63
5.002	26.55	37.70	-0.04	7.63
5.032	26.55	37.70	-0.04	7.63
5.062	26.64	37.79	-0.04	7.63
5.091	26.64	37.79	-0.14	7.53
5.121	26.64	37.79	-0.14	7.53
5.151	26.64	37.78	-0.14	7.53
5.181	26.64	37.78	0.01	7.68
5.210	26.64	37.78	0.01	7.68
5.240	26.78	37.92	0.01	7.68
5.270	26.78	37.92	-0.11	7.55
5.300	26.78	37.92	-0.11	7.55
5.330	26.70	37.85	-0.11	7.55
5.359	26.70	37.85	-0.04	7.63
5.389	26.70	37.85	-0.04	7.63
5.419	26.48	37.63	-0.04	7.63
5.449	26.48	37.63	-0.04	7.63
5.478	26.48	37.63	-0.04	7.63
5.508	26.56	37.71	-0.04	7.63
5.538	26.56	37.71	-0.14	7.53
5.568	26.56	37.71	-0.14	7.53
5.597	26.65	37.79	-0.14	7.53
5.627	26.65	37.79	0.01	7.68
5.657	26.65	37.79	0.01	7.68
5.687	26.78	37.92	0.01	7.68
5.717	26.78	37.92	-0.11	7.55
5.746	26.78	37.92	-0.11	7.55
5.776	26.69	37.84	-0.11	7.55
5.806	26.69	37.84	-0.04	7.63
5.836	26.69	37.84	-0.04	7.63
5.865	26.60	37.74	-0.04	7.63
5.895	26.60	37.74	-0.04	7.63
5.925	26.60	37.74	-0.04	7.63
5.955	26.63	37.78	-0.04	7.63
5.984	26.63	37.78	-0.14	7.53
6.014	26.63	37.78	-0.14	7.53
6.044	26.64	37.78	-0.14	7.53
6.074	26.64	37.78	0.01	7.68
6.104	26.64	37.78	0.01	7.68
6.133	26.76	37.90	0.01	7.68
6.163	26.76	37.90	-0.11	7.55
6.193	26.76	37.90	-0.11	7.55
6.223	26.63	37.78	-0.11	7.55
6.252	26.63	37.78	-0.04	7.63
6.282	26.63	37.78	-0.04	7.63
6.312	26.63	37.77	-0.04	7.63
6.342	26.63	37.77	-0.04	7.62
6.371	26.63	37.77	-0.04	7.62
6.401	26.56	37.71	-0.04	7.62
6.431	26.56	37.71	-0.14	7.53
6.461	26.56	37.71	-0.14	7.53
6.491	26.44	37.59	-0.14	7.53
6.520	26.44	37.59	0.01	7.68
6.550	26.44	37.59	0.01	7.68
6.580	26.74	37.88	0.01	7.68
6.610	26.74	37.88	-0.12	7.55
6.639	26.74	37.88	-0.12	7.55
6.669	26.79	37.93	-0.12	7.55
6.699	26.79	37.93	-0.04	7.63
6.729	26.79	37.93	-0.04	7.63
6.758	26.60	37.74	-0.04	7.63
6.788	26.60	37.74	-0.04	7.63
6.818	26.60	37.74	-0.04	7.63
6.848	26.76	37.90	-0.04	7.63
6.878	26.76	37.90	-0.14	7.53
6.907	26.76	37.90	-0.14	7.53
6.937	26.67	37.81	-0.14	7.53
6.967	26.67	37.81	0.01	7.68
6.997	26.67	37.81	0.01	7.68
7.026	26.78	37.93	0.01	7.68
7.056	26.78	37.93	-0.12	7.55
7.086	26.78	37.93	-0.12	7.55
7.116	26.65	37.79	-0.12	7.55
7.145	26.65	37.79	-0.03	7.63
7.175	26.65	37.79	-0.03	7.63
7.205	26.60	37.74	-0.03	7.63
7.235	26.60	37.74	-0.05	7.62
7.265	26.60	37.74	-0.05	7.62
7.294	26.59	37.74	-0.05	7.62
7.324	26.59	37.74	-0.14	7.52
7.354	26.59	37.74	-0.14	7.52
7.384	26.53	37.67	-0.14	7.52
7.413	26.53	37.67	0.01	7.68
7.443	26.53	37.67	0.01	7.68
7.473	26.62	37.76	0.01	7.68
7.503	26.62	37.76	-0.12	7.55
7.532	26.62	37.76	-0.12	7.55
7.562	26.61	37.75	-0.12	7.55
7.592	26.61	37.75	-0.04	7.63
7.622	26.61	37.75	-0.04	7.63
7.652	26.56	37.71	-0.04	7.63
7.681	26.56	37.71	-0.05	7.62
7.711	26.56	37.71	-0.05	7.62
7.741	26.57	37.72	-0.05	7.62
7.771	26.57	37.72	-0.14	7.53
7.800	26.57	37.72	-0.14	7.53
7.830	26.59	37.74	-0.14	7.53
7.860	26.59	37.74	0.01	7.68
7.890	26.59	37.74	0.01	7.68
7.919	26.69	37.83	0.01	7.68
7.949	26.69	37.83	-0.12	7.55
7.979	26.69	37.83	-0.12	7.55
8.009	26.59	37.73	-0.12	7.55
8.039	26.59	37.73	-0.04	7.63
8.068	26.59	37.73	-0.04	7.63
8.098	26.62	37.77	-0.04	7.63
8.128	26.62	37.77	-0.05	7.62
8.158	26.62	37.77	-0.05	7.62
8.187	26.59	37.73	-0.05	7.62
8.217	26.59	37.73	-0.14	7.53
8.247	26.59	37.73	-0.14	7.53
8.277	26.56	37.71	-0.14	7.53
8.306	26.56	37.71	0.01	7.68
8.336	26.56	37.71	0.01	7.68
8.366	26.57	37.71	0.01	7.68
8.396	26.57	37.71	-0.12	7.55
8.426	26.57	37.71	-0.12	7.55
8.455	26.52	37.66	-0.12	7.55
8.485	26.52	37.66	-0.03	7.63
8.515	26.52	37.66	-0.03	7.63
8.545	26.51	37.65	-0.03	7.63
8.574	26.51	37.65	-0.05	7.62
8.604	26.51	37.65	-0.05	7.62
8.634	26.53	37.68	-0.05	7.62
8.664	26.53	37.68	-0.14	7.53
8.693	26.53	37.68	-0.14	7.53
8.723	26.54	37.69	-0.14	7.53
8.753	26.54	37.69	0.01	7.68
8.783	26.54	37.69	0.01	7.68
8.813	26.69	37.84	0.01	7.68
8.842	26.69	37.84	-0.12	7.54
8.872	26.69	37.84	-0.12	7.54
8.902	26.54	37.68	-0.12	7.54
8.932	26.54	37.68	-0.03	7.63
8.961	26.54	37.68	-0.03	7.63
8.991	26.50	37.65	-0.03	7.63
9.021	26.50	37.65	-0.05	7.62
9.051	26.50	37.65	-0.05	7.62
9.080	26.56	37.70	-0.05	7.62
9.110	26.56	37.70	-0.14	7.53
9.140	26.56	37.70	-0.14	7.53
9.170	26.58	37.72	-0.14	7.53
9.200	26.58	37.72	0.01	7.68
9.229	26.58	37.72	0.01	7.68
9.259	26.48	37.63	0.01	7.68
9.289	26.48	37.63	-0.12	7.55
9.319	26.48	37.63	-0.12	7.55
9.348	26.54	37.68	-0.12	7.55
9.378	26.54	37.68	-0.04	7.63
9.408	26.54	37.68	-0.04	7.63
9.438	26.55	37.70	-0.04	7.63
9.467	26.55	37.70	-0.05	7.62
9.497	26.55	37.70	-0.05	7.62
9.527	26.48	37.62	-0.05	7.62
9.557	26.48	37.62	-0.14	7.53
9.587	26.48	37.62	-0.14	7.53
9.616	26.47	37.62	-0.14	7.53
9.646	26.47	37.62	0.02	7.69
9.676	26.47	37.62	0.02	7.69
9.706	26.68	37.83	0.02	7.69
9.735	26.68	37.83	-0.12	7.54
9.765	26.68	37.83	-0.12	7.54
9.795	26.61	37.75	-0.12	7.54
9.825	26.61	37.75	-0.03	7.63
9.854	26.61	37.75	-0.03	7.63
9.884	26.57	37.71	-0.03	7.63
9.914	26.57	37.71	-0.06	7.61
9.944	26.57	37.71	-0.06	7.61
9.974	26.64	37.79	-0.06	7.61
10.003	26.64	37.79	-0.13	7.53
10.033	26.64	37.79	-0.13	7.53
10.063	26.54	37.69	-0.13	7.53
10.093	26.54	37.69	0.01	7.68
10.122	26.54	37.69	0.01	7.68
10.152	26.60	37.74	0.01	7.68
10.182	26.60	37.74	-0.12	7.55
10.212	26.60	37.74	-0.12	7.55
10.241	26.71	37.86	-0.12	7.55
10.271	26.71	37.86	-0.03	7.63
10.301	26.71	37.86	-0.03	7.63
10.331	26.61	37.75	-0.03	7.63
10.360	26.61	37.75	-0.05	7.61
10.390	26.61	37.75	-0.05	7.61
10.420	26.63	37.77	-0.05	7.61
10.450	26.63	37.77	-0.14	7.53
10.479	26.63	37.77	-0.14	7.53
10.509	26.52	37.66	-0.14	7.53
10.539	26.52	37.66	0.01	7.68
10.569	26.52	37.66	0.01	7.68
10.598	26.63	37.77	0.01	7.68
10.628	26.63	37.77	-0.12	7.54
10.658	26.63	37.77	-0.12	7.54
10.688	26.55	37.70	-0.12	7.54
10.718	26.55	37.70	-0.03	7.64
10.747	26.55	37.70	-0.03	7.64
10.777	26.52	37.66	-0.03	7.64
10.807	26.52	37.66	-0.06	7.61
10.837	26.52	37.66	-0.06	7.61
10.866	26.55	37.69	-0.06	7.61
10.896	26.55	37.69	-0.14	7.53
10.926	26.55	37.69	-0.14	7.53
10.956	26.48	37.62	-0.14	7.53
10.985	26.48	37.62	0.01	7.68
11.015	26.48	37.62	0.01	7.68
11.045	26.55	37.69	0.01	7.68
11.075	26.55	37.69	-0.12	7.54
11.104	26.55	37.69	-0.12	7.54
11.134	26.54	37.69	-0.12	7.54
11.164	26.54	37.69	-0.03	7.63
11.194	26.54	37.69	-0.03	7.63
11.223	26.59	37.73	-0.03	7.63
11.253	26.59	37.73	-0.06	7.60
11.283	26.59	37.73	-0.06	7.60
11.313	26.51	37.65	-0.06	7.60
11.342	26.51	37.65	-0.13	7.54
11.372	26.51	37.65	-0.13	7.54
11.402	26.51	37.66	-0.13	7.54
11.432	26.51	37.66	0.01	7.68
11.461	26.51	37.66	0.01	7.68
11.491	26.63	37.77	0.01	7.68
11.521	26.63	37.77	-0.12	7.54
11.551	26.63	37.77	-0.12	7.54
11.581	26.58	37.72	-0.12	7.54
11.610	26.58	37.72	-0.03	7.64
11.640	26.58	37.72	-0.03	7.64
11.670	26.56	37.70	-0.03	7.64
11.700	26.56	37.70	-0.06	7.61
11.729	26.56	37.70	-0.06	7.61
11.759	26.53	37.68	-0.06	7.61
11.789	26.53	37.68	-0.14	7.53
11.819	26.53	37.68	-0.14	7.53
11.848	26.53	37.67	-0.14	7.53
11.878	26.53	37.67	0.01	7.68
11.908	26.53	37.67	0.01	7.68
11.938	26.50	37.65	0.01	7.68
11.967	26.50	37.65	-0.12	7.54
11.997	26.50	37.65	-0.12	7.54
12.027	26.51	37.66	-0.12	7.54
12.057	26.51	37.66	-0.03	7.64
12.086	26.51	37.66	-0.03	7.64
12.116	26.48	37.63	-0.03	7.64
12.146	26.48	37.63	-0.06	7.60
12.176	26.48	37.63	-0.06	7.60
12.205	26.44	37.58	-0.06	7.60
12.235	26.44	37.58	-0.13	7.53
12.265	26.44	37.58	-0.13	7.53
12.295	26.50	37.64	-0.13	7.53
12.324	26.50	37.64	0.01	7.68
12.354	26.50	37.64	0.01	7.68
12.384	26.45	37.60	0.01	7.68
12.414	26.45	37.60	-0.13	7.54
12.444	26.45	37.60	-0.13	7.54
12.473	26.56	37.70	-0.13	7.54
12.503	26.56	37.70	-0.03	7.63
12.533	26.56	37.70	-0.03	7.63
12.563	26.48	37.62	-0.03	7.63
12.592	26.48	37.62	-0.07	7.60
12.622	26.48	37.62	-0.07	7.60
12.652	26.60	37.74	-0.07	7.60
12.682	26.60	37.74	-0.13	7.54
12.711	26.60	37.74	-0.13	7.54
12.741	26.63	37.78	-0.13	7.54
12.771	26.63	37.78	0.01	7.68
12.801	26.63	37.78	0.01	7.68
12.830	26.65	37.79	0.01	7.68
12.860	26.65	37.79	-0.13	7.54
12.890	26.65	37.79	-0.13	7.54
12.920	26.67	37.81	-0.13	7.54
12.949	26.67	37.81	-0.03	7.63
12.979	26.67	37.81	-0.03	7.63
13.009	26.61	37.76	-0.03	7.63
13.039	26.61	37.76	-0.06	7.60
13.068	26.61	37.76	-0.06	7.60
13.098	26.64	37.79	-0.06	7.60
13.128	26.64	37.79	-0.13	7.54
13.158	26.64	37.79	-0.13	7.54
13.187	26.60	37.75	-0.13	7.54
13.217	26.60	37.75	0.02	7.68
13.247	26.60	37.75	0.02	7.68
13.277	26.69	37.83	0.02	7.68
13.307	26.69	37.83	-0.13	7.54
13.336	26.69	37.83	-0.13	7.54
13.366	26.65	37.79	-0.13	7.54
13.396	26.65	37.79	-0.03	7.64
13.426	26.65	37.79	-0.03	7.64
13.455	26.62	37.77	-0.03	7.64
13.485	26.62	37.77	-0.06	7.60
13.515	26.62	37.77	-0.06	7.60
13.545	26.59	37.74	-0.06	7.60
13.574	26.59	37.74	-0.13	7.54
13.604	26.59	37.74	-0.13	7.54
13.634	26.60	37.75	-0.13	7.54
13.664	26.60	37.75	0.01	7.68
13.693	26.60	37.75	0.01	7.68
13.723	26.63	37.77	0.01	7.68
13.753	26.63	37.77	-0.13	7.54
13.783	26.63	37.77	-0.13	7.54
13.812	26.62	37.76	-0.13	7.54
13.842	26.62	37.76	-0.03	7.63
13.872	26.62	37.76	-0.03	7.63
13.902	26.58	37.72	-0.03	7.63
13.931	26.58	37.72	-0.06	7.60
13.961	26.58	37.72	-0.06	7.60
13.991	26.56	37.71	-0.06	7.60
14.021	26.56	37.71	-0.13	7.54
14.051	26.56	37.71	-0.13	7.54
14.080	26.55	37.69	-0.13	7.54
14.110	26.55	37.69	0.01	7.68
14.140	26.55	37.69	0.01	7.68
14.170	26.59	37.74	0.01	7.68
14.199	26.59	37.74	-0.13	7.54
14.229	26.59	37.74	-0.13	7.54
14.259	26.57	37.72	-0.13	7.54
14.289	26.57	37.72	-0.03	7.64
14.318	26.57	37.72	-0.03	7.64
14.348	26.53	37.67	-0.03	7.64
14.378	26.53	37.67	-0.06	7.60
14.408	26.53	37.67	-0.06	7.60
14.437	26.61	37.75	-0.06	7.60
14.467	26.61	37.75	-0.13	7.54
14.497	26.61	37.75	-0.13	7.54
14.527	26.67	37.82	-0.13	7.54
14.556	26.67	37.82	0.01	7.68
14.586	26.67	37.82	0.01	7.68
14.616	26.63	37.77	0.01	7.68
14.646	26.63	37.77	-0.12	7.54
14.676	26.63	37.77	-0.12	7.54
14.705	26.63	37.77	-0.12	7.54
14.735	26.63	37.77	-0.03	7.64
14.765	26.63	37.77	-0.03	7.64
14.795	26.56	37.71	-0.03	7.64
14.824	26.56	37.71	-0.07	7.60
14.854	26.56	37.71	-0.07	7.60
14.884	26.56	37.70	-0.07	7.60
14.914	26.56	37.70	-0.13	7.54
14.943	26.56	37.70	-0.13	7.54
14.973	26.53	37.68	-0.13	7.54
15.003	26.53	37.68	0.01	7.68
15.033	26.53	37.68	0.01	7.68
15.062	26.53	37.68	0.01	7.68
15.092	26.53	37.68	-0.13	7.54
15.122	26.53	37.68	-0.13	7.54
15.152	26.65	37.79	-0.13	7.54
15.181	26.65	37.79	-0.03	7.64
15.211	26.65	37.79	-0.03	7.64
15.241	26.54	37.68	-0.03	7.64
15.271	26.54	37.68	-0.06	7.60
15.300	26.54	37.68	-0.06	7.60
15.330	26.59	37.73	-0.06	7.60
15.360	26.59	37.73	-0.13	7.54
15.390	26.59	37.73	-0.13	7.54
15.419	26.60	37.75	-0.13	7.54
15.449	26.60	37.75	0.01	7.68
15.479	26.60	37.75	0.01	7.68
15.509	26.59	37.73	0.01	7.68
15.539	26.59	37.73	-0.13	7.54
15.568	26.59	37.73	-0.13	7.54
15.598	26.52	37.66	-0.13	7.54
15.628	26.52	37.66	-0.03	7.64
15.658	26.52	37.66	-0.03	7.64
15.687	26.47	37.62	-0.03	7.64
15.717	26.47	37.62	-0.07	7.60
15.747	26.47	37.62	-0.07	7.60
15.777	26.51	37.65	-0.07	7.60
15.806	26.51	37.65	-0.13	7.54
15.836	26.51	37.65	-0.13	7.54
15.866	26.52	37.66	-0.13	7.54
15.896	26.52	37.66	0.01	7.68
15.925	26.52	37.66	0.01	7.68
15.955	26.53	37.68	0.01	7.68
15.985	26.53	37.68	-0.13	7.54
16.015	26.53	37.68	-0.13	7.54
16.044	26.56	37.71	-0.13	7.54
16.074	26.56	37.71	-0.03	7.64
16.104	26.56	37.71	-0.03	7.64
16.134	26.54	37.68	-0.03	7.64
16.163	26.54	37.68	-0.07	7.60
16.193	26.54	37.68	-0.07	7.60
16.223	26.57	37.72	-0.07	7.60
16.253	26.57	37.72	-0.12	7.54
16.283	26.57	37.72	-0.12	7.54
16.312	26.60	37.75	-0.12	7.54
16.342	26.60	37.75	0.02	7.68
16.372	26.60	37.75	0.02	7.68
16.402	26.54	37.69	0.02	7.68
16.431	26.54	37.69	-0.13	7.54
16.461	26.54	37.69	-0.13	7.54
16.491	26.58	37.72	-0.13	7.54
16.521	26.58	37.72	-0.03	7.64
16.550	26.58	37.72	-0.03	7.64
16.580	26.51	37.65	-0.03	7.64
16.610	26.51	37.65	-0.07	7.60
16.640	26.51	37.65	-0.07	7.60
16.669	26.48	37.62	-0.07	7.60
16.699	26.48	37.62	-0.12	7.54
16.729	26.48	37.62	-0.12	7.54
16.759	26.55	37.70	-0.12	7.54
16.788	26.55	37.70	0.01	7.68
16.818	26.55	37.70	0.01	7.68
16.848	26.62	37.76	0.01	7.68
16.878	26.62	37.76	-0.13	7.54
16.907	26.62	37.76	-0.13	7.54
16.937	26.59	37.73	-0.13	7.54
16.967	26.59	37.73	-0.03	7.64
16.997	26.59	37.73	-0.03	7.64
17.026	26.53	37.67	-0.03	7.64
17.056	26.53	37.67	-0.07	7.60
17.086	26.53	37.67	-0.07	7.60
17.116	26.54	37.68	-0.07	7.60
17.146	26.54	37.68	-0.13	7.54
17.175	26.54	37.68	-0.13	7.54
17.205	26.61	37.76	-0.13	7.54
17.235	26.61	37.76	0.02	7.68
17.265	26.61	37.76	0.02	7.68
17.294	26.58	37.72	0.02	7.68
17.324	26.58	37.72	-0.13	7.54
17.354	26.58	37.72	-0.13	7.54
17.384	26.65	37.80	-0.13	7.54
17.413	26.65	37.80	-0.03	7.64
17.443	26.65	37.80	-0.03	7.64
17.473	26.56	37.70	-0.03	7.64
17.503	26.56	37.70	-0.07	7.60
17.532	26.56	37.70	-0.07	7.60
17.562	26.55	37.69	-0.07	7.60
17.592	26.55	37.69	-0.13	7.54
17.622	26.55	37.69	-0.13	7.54
17.651	26.59	37.73	-0.13	7.54
17.681	26.59	37.73	0.01	7.68
17.711	26.59	37.73	0.01	7.68
17.741	26.62	37.77	0.01	7.68
17.771	26.62	37.77	-0.13	7.54
17.800	26.62	37.77	-0.13	7.54
17.830	26.59	37.74	-0.13	7.54
17.860	26.59	37.74	-0.03	7.64
17.890	26.59	37.74	-0.03	7.64
17.919	26.54	37.69	-0.03	7.64
17.949	26.54	37.69	-0.06	7.60
17.979	26.54	37.69	-0.06	7.60
18.009	26.58	37.73	-0.06	7.60
18.038	26.58	37.73	-0.13	7.54
18.068	26.58	37.73	-0.13	7.54
18.098	26.58	37.72	-0.13	7.54
18.128	26.58	37.72	0.01	7.68
18.157	26.58	37.72	0.01	7.68
18.187	26.52	37.67	0.01	7.68
18.217	26.52	37.67	-0.14	7.53
18.247	26.52	37.67	-0.14	7.53
18.276	26.60	37.75	-0.14	7.53
18.306	26.60	37.75	-0.03	7.64
18.336	26.60	37.75	-0.03	7.64
18.366	26.52	37.66	-0.03	7.64
18.395	26.52	37.66	-0.07	7.60
18.425	26.52	37.66	-0.07	7.60
18.455	26.49	37.63	-0.07	7.60
18.485	26.49	37.63	-0.13	7.54
18.515	26.49	37.63	-0.13	7.54
18.544	26.52	37.67	-0.13	7.54
18.574	26.52	37.67	0.01	7.68
18.604	26.52	37.67	0.01	7.68
18.634	26.47	37.61	0.01	7.68
18.663	26.47	37.61	-0.13	7.53
18.693	26.47	37.61	-0.13	7.53
18.723	26.60	37.75	-0.13	7.53
18.753	26.60	37.75	-0.03	7.64
18.782	26.60	37.75	-0.03	7.64
18.812	26.55	37.69	-0.03	7.64
18.842	26.55	37.69	-0.07	7.60
18.872	26.55	37.69	-0.07	7.60
18.901	26.52	37.66	-0.07	7.60
18.931	26.52	37.66	-0.12	7.54
18.961	26.52	37.66	-0.12	7.54
18.991	26.57	37.72	-0.12	7.54
19.020	26.57	37.72	0.01	7.68
19.050	26.57	37.72	0.01	7.68
19.080	26.49	37.63	0.01	7.68
19.110	26.49	37.63	-0.13	7.53
19.139	26.49	37.63	-0.13	7.53
19.169	26.61	37.76	-0.13	7.53
19.199	26.61	37.76	-0.03	7.64
19.229	26.61	37.76	-0.03	7.64
19.258	26.58	37.73	-0.03	7.64
19.288	26.58	37.73	-0.07	7.60
19.318	26.58	37.73	-0.07	7.60
19.348	26.59	37.73	-0.07	7.60
19.378	26.59	37.73	-0.12	7.55
19.407	26.59	37.73	-0.12	7.55
19.437	26.56	37.70	-0.12	7.55
19.467	26.56	37.70	0.01	7.68
19.497	26.56	37.70	0.01	7.68
19.526	26.56	37.70	0.01	7.68
19.556	26.56	37.70	-0.13	7.54
19.586	26.56	37.70	-0.13	7.54
19.616	26.75	37.90	-0.13	7.54
19.645	26.75	37.90	-0.03	7.64
19.675	26.75	37.90	-0.03	7.64
19.705	26.64	37.78	-0.03	7.64
19.735	26.64	37.78	-0.07	7.60
19.764	26.64	37.78	-0.07	7.60
19.794	26.70	37.84	-0.07	7.60
19.824	26.70	37.84	-0.12	7.55
19.854	26.70	37.84	-0.12	7.55
19.883	26.69	37.83	-0.12	7.55
19.913	26.69	37.83	0.01	7.68
19.943	26.69	37.83	0.01	7.68
19.973	26.60	37.75	0.01	7.68
20.002	26.60	37.75	-0.13	7.53
20.032	26.60	37.75	-0.13	7.53
20.062	26.71	37.86	-0.13	7.53
20.092	26.71	37.86	-0.02	7.64
20.121	26.71	37.86	-0.02	7.64
20.151	26.72	37.87	-0.02	7.64
20.181	26.72	37.87	-0.07	7.59
20.211	26.72	37.87	-0.07	7.59
20.240	26.64	37.78	-0.07	7.59
20.270	26.64	37.78	-0.12	7.55
20.300	26.64	37.78	-0.12	7.55
20.330	26.63	37.78	-0.12	7.55
20.360	26.63	37.78	0.01	7.68
20.389	26.63	37.78	0.01	7.68
20.419	26.62	37.77	0.01	7.68
20.449	26.62	37.77	-0.13	7.54
20.479	26.62	37.77	-0.13	7.54
20.508	26.66	37.80	-0.13	7.54
20.538	26.66	37.80	-0.03	7.64
20.568	26.66	37.80	-0.03	7.64
20.598	26.65	37.79	-0.03	7.64
20.627	26.65	37.79	-0.07	7.59
20.657	26.65	37.79	-0.07	7.59
20.687	26.62	37.76	-0.07	7.59
20.717	26.62	37.76	-0.12	7.55
20.746	26.62	37.76	-0.12	7.55
20.776	26.68	37.83	-0.12	7.55
20.806	26.68	37.83	0.01	7.68
20.836	26.68	37.83	0.01	7.68
20.865	26.62	37.76	0.01	7.68
20.895	26.62	37.76	-0.13	7.53
20.925	26.62	37.76	-0.13	7.53
20.955	26.68	37.82	-0.13	7.53
20.984	26.68	37.82	-0.03	7.64
21.014	26.68	37.82	-0.03	7.64
21.044	26.63	37.78	-0.03	7.64
21.074	26.63	37.78	-0.08	7.59
21.104	26.63	37.78	-0.08	7.59
21.133	26.55	37.69	-0.08	7.59
21.163	26.55	37.69	-0.12	7.55
21.193	26.55	37.69	-0.12	7.55
21.223	26.59	37.74	-0.12	7.55
21.252	26.59	37.74	0.01	7.68
21.282	26.59	37.74	0.01	7.68
21.312	26.55	37.70	0.01	7.68
21.342	26.55	37.70	-0.13	7.54
21.371	26.55	37.70	-0.13	7.54
21.401	26.62	37.77	-0.13	7.54
21.431	26.62	37.77	-0.03	7.64
21.461	26.62	37.77	-0.03	7.64
21.490	26.69	37.84	-0.03	7.64
21.520	26.69	37.84	-0.08	7.59
21.550	26.69	37.84	-0.08	7.59
21.580	26.60	37.74	-0.08	7.59
21.609	26.60	37.74	-0.12	7.55
21.639	26.60	37.74	-0.12	7.55
21.669	26.63	37.78	-0.12	7.55
21.699	26.63	37.78	0.01	7.68
21.728	26.63	37.78	0.01	7.68
21.758	26.60	37.75	0.01	7.68
21.788	26.60	37.75	-0.13	7.53
21.818	26.60	37.75	-0.13	7.53
21.847	26.64	37.78	-0.13	7.53
21.877	26.64	37.78	-0.03	7.64
21.907	26.64	37.78	-0.03	7.64
21.937	26.60	37.74	-0.03	7.64
21.967	26.60	37.74	-0.08	7.59
21.996	26.60	37.74	-0.08	7.59
22.026	26.58	37.73	-0.08	7.59
22.056	26.58	37.73	-0.12	7.55
22.086	26.58	37.73	-0.12	7.55
22.115	26.57	37.72	-0.12	7.55
22.145	26.57	37.72	0.01	7.68
22.175	26.57	37.72	0.01	7.68
22.205	26.57	37.71	0.01	7.68
22.234	26.57	37.71	-0.14	7.53
22.264	26.57	37.71	-0.14	7.53
22.294	26.76	37.90	-0.14	7.53
22.324	26.76	37.90	-0.02	7.64
22.353	26.76	37.90	-0.02	7.64
22.383	26.62	37.76	-0.02	7.64
22.413	26.62	37.76	-0.08	7.59
22.443	26.62	37.76	-0.08	7.59
22.472	26.65	37.79	-0.08	7.59
22.502	26.65	37.79	-0.11	7.55
22.532	26.65	37.79	-0.11	7.55
22.562	26.66	37.81	-0.11	7.55
22.591	26.66	37.81	0.01	7.68
22.621	26.66	37.81	0.01	7.68
22.651	26.71	37.85	0.01	7.68
22.681	26.71	37.85	-0.14	7.53
22.710	26.71	37.85	-0.14	7.53
22.740	26.72	37.86	-0.14	7.53
22.770	26.72	37.86	-0.02	7.64
22.800	26.72	37.86	-0.02	7.64
22.830	26.71	37.85	-0.02	7.64
22.859	26.71	37.85	-0.08	7.59
22.889	26.71	37.85	-0.08	7.59
22.919	26.61	37.76	-0.08	7.59
22.949	26.61	37.76	-0.11	7.55
22.978	26.61	37.76	-0.11	7.55
23.008	26.66	37.80	-0.11	7.55
23.038	26.66	37.80	0.01	7.68
23.068	26.66	37.80	0.01	7.68
23.097	26.59	37.74	0.01	7.68
23.127	26.59	37.74	-0.14	7.53
23.157	26.59	37.74	-0.14	7.53
23.187	26.63	37.78	-0.14	7.53
23.216	26.63	37.78	-0.02	7.64
23.246	26.63	37.78	-0.02	7.64
23.276	26.60	37.75	-0.02	7.64
23.306	26.60	37.75	-0.08	7.59
23.335	26.60	37.75	-0.08	7.59
23.365	26.63	37.77	-0.08	7.59
23.395	26.63	37.77	-0.11	7.56
23.425	26.63	37.77	-0.11	7.56
23.454	26.66	37.80	-0.11	7.56
23.484	26.66	37.80	0.02	7.68
23.514	26.66	37.80	0.02	7.68
23.544	26.72	37.86	0.02	7.68
23.574	26.72	37.86	-0.13	7.53
23.603	26.72	37.86	-0.13	7.53
23.633	26.68	37.83	-0.13	7.53
23.663	26.68	37.83	-0.02	7.64
23.693	26.68	37.83	-0.02	7.64
23.722	26.66	37.80	-0.02	7.64
23.752	26.66	37.80	-0.08	7.58
23.782	26.66	37.80	-0.08	7.58
23.812	26.74	37.88	-0.08	7.58
23.841	26.74	37.88	-0.11	7.56
23.871	26.74	37.88	-0.11	7.56
23.901	26.66	37.80	-0.11	7.56
23.931	26.66	37.80	0.01	7.68
23.960	26.66	37.80	0.01	7.68
23.990	26.69	37.84	0.01	7.68
24.020	26.69	37.84	-0.13	7.53
24.050	26.69	37.84	-0.13	7.53
24.079	26.68	37.82	-0.13	7.53
24.109	26.68	37.82	-0.02	7.65
24.139	26.68	37.82	-0.02	7.65
24.169	26.68	37.82	-0.02	7.65
24.198	26.68	37.82	-0.08	7.58
24.228	26.68	37.82	-0.08	7.58
24.258	26.71	37.85	-0.08	7.58
24.288	26.71	37.85	-0.11	7.56
24.318	26.71	37.85	-0.11	7.56
24.347	26.63	37.78	-0.11	7.56
24.377	26.63	37.78	0.01	7.68
24.407	26.63	37.78	0.01	7.68
24.437	26.73	37.88	0.01	7.68
24.466	26.73	37.88	-0.14	7.53
24.496	26.73	37.88	-0.14	7.53
24.526	26.64	37.78	-0.14	7.53
24.556	26.64	37.78	-0.02	7.65
24.585	26.64	37.78	-0.02	7.65
24.615	26.79	37.93	-0.02	7.65
24.645	26.79	37.93	-0.08	7.59
24.675	26.79	37.93	-0.08	7.59
24.704	26.71	37.85	-0.08	7.59
24.734	26.71	37.85	-0.11	7.56
24.764	26.71	37.85	-0.11	7.56
24.794	26.68	37.83	-0.11	7.56
24.823	26.68	37.83	0.01	7.68
24.853	26.68	37.83	0.01	7.68
24.883	26.72	37.87	0.01	7.68
24.913	26.72	37.87	-0.14	7.53
24.942	26.72	37.87	-0.14	7.53
24.972	26.64	37.78	-0.14	7.53
25.002	26.64	37.78	-0.02	7.65
25.032	26.64	37.78	-0.02	7.65
25.062	26.68	37.83	-0.02	7.65
25.091	26.68	37.83	-0.08	7.59
25.121	26.68	37.83	-0.08	7.59
25.151	26.65	37.79	-0.08	7.59
25.181	26.65	37.79	-0.11	7.56
25.210	26.65	37.79	-0.11	7.56
25.240	26.69	37.84	-0.11	7.56
25.270	26.69	37.84	0.01	7.68
25.300	26.69	37.84	0.01	7.68
25.329	26.76	37.90	0.01	7.68
25.359	26.76	37.90	-0.14	7.53
25.389	26.76	37.90	-0.14	7.53
25.419	26.68	37.83	-0.14	7.53
25.448	26.68	37.83	-0.02	7.65
25.478	26.68	37.83	-0.02	7.65
25.508	26.74	37.88	-0.02	7.65
25.538	26.74	37.88	-0.09	7.58
25.568	26.74	37.88	-0.09	7.58
25.597	26.70	37.84	-0.09	7.58
25.627	26.70	37.84	-0.10	7.57
25.657	26.70	37.84	-0.10	7.57
25.687	26.70	37.85	-0.10	7.57
25.716	26.70	37.85	0.01	7.68
25.746	26.70	37.85	0.01	7.68
25.776	26.65	37.79	0.01	7.68
25.806	26.65	37.79	-0.14	7.53
25.835	26.65	37.79	-0.14	7.53
25.865	26.71	37.86	-0.14	7.53
25.895	26.71	37.86	-0.01	7.65
25.925	26.71	37.86	-0.01	7.65
25.954	26.77	37.91	-0.01	7.65
25.984	26.77	37.91	-0.09	7.58
26.014	26.77	37.91	-0.09	7.58
26.044	26.70	37.85	-0.09	7.58
26.073	26.70	37.85	-0.10	7.57
26.103	26.70	37.85	-0.10	7.57
26.133	26.67	37.82	-0.10	7.57
26.163	26.67	37.82	0.01	7.68
26.192	26.67	37.82	0.01	7.68
26.222	26.75	37.90	0.01	7.68
26.252	26.75	37.90	-0.14	7.53
26.282	26.75	37.90	-0.14	7.53
26.311	26.73	37.87	-0.14	7.53
26.341	26.73	37.87	-0.02	7.65
26.371	26.73	37.87	-0.02	7.65
26.401	26.72	37.87	-0.02	7.65
26.431	26.72	37.87	-0.08	7.58
26.460	26.72	37.87	-0.08	7.58
26.490	26.76	37.90	-0.08	7.58
26.520	26.76	37.90	-0.10	7.57
26.550	26.76	37.90	-0.10	7.57
26.579	26.69	37.83	-0.10	7.57
26.609	26.69	37.83	0.01	7.68
26.639	26.69	37.83	0.01	7.68
26.669	26.69	37.84	0.01	7.68
26.698	26.69	37.84	-0.14	7.53
26.728	26.69	37.84	-0.14	7.53
26.758	26.70	37.85	-0.14	7.53
26.788	26.70	37.85	-0.01	7.65
26.817	26.70	37.85	-0.01	7.65
26.847	26.78	37.92	-0.01	7.65
26.877	26.78	37.92	-0.09	7.58
26.907	26.78	37.92	-0.09	7.58
26.936	26.70	37.84	-0.09	7.58
26.966	26.70	37.84	-0.09	7.57
26.996	26.70	37.84	-0.09	7.57
27.026	26.74	37.88	-0.09	7.57
27.055	26.74	37.88	0.01	7.68
27.085	26.74	37.88	0.01	7.68
27.115	26.75	37.89	0.01	7.68
27.145	26.75	37.89	-0.14	7.53
27.175	26.75	37.89	-0.14	7.53
27.204	26.71	37.86	-0.14	7.53
27.234	26.71	37.86	-0.01	7.65
27.264	26.71	37.86	-0.01	7.65
27.294	26.77	37.91	-0.01	7.65
27.323	26.77	37.91	-0.09	7.58
27.353	26.77	37.91	-0.09	7.58
27.383	26.71	37.85	-0.09	7.58
27.413	26.71	37.85	-0.09	7.58
27.442	26.71	37.85	-0.09	7.58
27.472	26.66	37.80	-0.09	7.58
27.502	26.66	37.80	0.01	7.68
27.532	26.66	37.80	0.01	7.68
27.561	26.66	37.80	0.01	7.68
27.591	26.66	37.80	-0.14	7.53
27.621	26.66	37.80	-0.14	7.53
27.651	26.70	37.84	-0.14	7.53
27.680	26.70	37.84	-0.01	7.66
27.710	26.70	37.84	-0.01	7.66
27.740	26.72	37.87	-0.01	7.66
27.770	26.72	37.87	-0.09	7.57
27.799	26.72	37.87	-0.09	7.57
27.829	26.65	37.80	-0.09	7.57
27.859	26.65	37.80	-0.08	7.58
27.889	26.65	37.80	-0.08	7.58
27.919	26.66	37.80	-0.08	7.58
27.948	26.66	37.80	0.01	7.68
27.978	26.66	37.80	0.01	7.68
28.008	26.72	37.87	0.01	7.68
28.038	26.72	37.87	-0.14	7.53
28.067	26.72	37.87	-0.14	7.53
28.097	26.63	37.77	-0.14	7.53
28.127	26.63	37.77	-0.01	7.66
28.157	26.63	37.77	-0.01	7.66
28.186	26.69	37.83	-0.01	7.66
28.216	26.69	37.83	-0.09	7.58
28.246	26.69	37.83	-0.09	7.58
28.276	26.66	37.80	-0.09	7.58
28.305	26.66	37.80	-0.08	7.58
28.335	26.66	37.80	-0.08	7.58
28.365	26.69	37.83	-0.08	7.58
28.395	26.69	37.83	0.01	7.68
28.424	26.69	37.83	0.01	7.68
28.454	26.66	37.80	0.01	7.68
28.484	26.66	37.80	-0.14	7.53
28.514	26.66	37.80	-0.14	7.53
28.544	26.68	37.82	-0.14	7.53
28.573	26.68	37.82	-0.01	7.66
28.603	26.68	37.82	-0.01	7.66
28.633	26.78	37.92	-0.01	7.66
28.663	26.78	37.92	-0.10	7.57
28.692	26.78	37.92	-0.10	7.57
28.722	26.70	37.84	-0.10	7.57
28.752	26.70	37.84	-0.08	7.59
28.782	26.70	37.84	-0.08	7.59
28.811	26.68	37.82	-0.08	7.59
28.841	26.68	37.82	0.01	7.68
28.871	26.68	37.82	0.01	7.68
28.901	26.64	37.79	0.01	7.68
28.930	26.64	37.79	-0.14	7.53
28.960	26.64	37.79	-0.14	7.53
28.990	26.58	37.72	-0.14	7.53
29.020	26.58	37.72	-0.00	7.66
29.049	26.58	37.72	-0.00	7.66
29.079	26.71	37.85	-0.00	7.66
29.109	26.71	37.85	-0.10	7.57
29.139	26.71	37.85	-0.10	7.57
29.168	26.64	37.78	-0.10	7.57
29.198	26.64	37.78	-0.07	7.60
29.228	26.64	37.78	-0.07	7.60
29.258	26.68	37.83	-0.07	7.60
29.287	26.68	37.83	0.01	7.67
29.317	26.68	37.83	0.01	7.67
29.347	26.61	37.75	0.01	7.67
29.377	26.61	37.75	-0.15	7.52
29.407	26.61	37.75	-0.15	7.52
29.436	26.61	37.76	-0.15	7.52
29.466	26.61	37.76	-0.01	7.66
29.496	26.61	37.76	-0.01	7.66
29.526	26.69	37.83	-0.01	7.66
29.555	26.69	37.83	-0.10	7.57
29.585	26.69	37.83	-0.10	7.57
29.615	26.65	37.80	-0.10	7.57
29.645	26.65	37.80	-0.07	7.60
29.674	26.65	37.80	-0.07	7.60
29.704	26.70	37.84	-0.07	7.60
29.734	26.70	37.84	0.00	7.67
29.764	26.70	37.84	0.00	7.67
29.793	26.73	37.88	0.00	7.67
29.823	26.73	37.88	-0.14	7.53
29.853	26.73	37.88	-0.14	7.53
29.883	26.65	37.79	-0.14	7.53
29.912	26.65	37.79	-0.00	7.67
29.942	26.65	37.79	-0.00	7.67
29.972	26.70	37.85	-0.00	7.67
30.002	26.70	37.85	-0.10	7.57
30.032	26.70	37.85	-0.10	7.57
30.061	26.64	37.79	-0.10	7.57
30.091	26.64	37.79	-0.06	7.60
30.121	26.64	37.79	-0.06	7.60
30.151	26.61	37.76	-0.06	7.60
30.180	26.61	37.76	0.00	7.67
30.210	26.61	37.76	0.00	7.67
30.240	26.66	37.80	0.00	7.67
30.270	26.66	37.80	-0.14	7.52
30.299	26.66	37.80	-0.14	7.52
30.329	26.61	37.75	-0.14	7.52
30.359	26.61	37.75	0.00	7.67
30.389	26.61	37.75	0.00	7.67
30.418	26.69	37.84	0.00	7.67
30.448	26.69	37.84	-0.10	7.57
30.478	26.69	37.84	-0.10	7.57
30.507	26.64	37.78	-0.10	7.57
30.537	26.64	37.78	-0.06	7.61
30.567	26.64	37.78	-0.06	7.61
30.597	26.55	37.69	-0.06	7.61
30.627	26.55	37.69	-0.01	7.66
30.656	26.55	37.69	-0.01	7.66
30.686	26.68	37.82	-0.01	7.66
30.716	26.68	37.82	-0.14	7.53
30.746	26.68	37.82	-0.14	7.53
30.775	26.60	37.75	-0.14	7.53
30.805	26.60	37.75	0.01	7.67
30.835	26.60	37.75	0.01	7.67
30.865	26.65	37.80	0.01	7.67
30.894	26.65	37.80	-0.11	7.56
30.924	26.65	37.80	-0.11	7.56
30.954	26.68	37.82	-0.11	7.56
30.984	26.68	37.82	-0.05	7.61
31.013	26.68	37.82	-0.05	7.61
31.043	26.61	37.75	-0.05	7.61
31.073	26.61	37.75	-0.01	7.66
31.103	26.61	37.75	-0.01	7.66
31.132	26.64	37.79	-0.01	7.66
31.162	26.64	37.79	-0.14	7.53
31.192	26.64	37.79	-0.14	7.53
31.222	26.60	37.75	-0.14	7.53
31.251	26.60	37.75	0.00	7.67
31.281	26.60	37.75	0.00	7.67
31.311	26.72	37.86	0.00	7.67
31.341	26.72	37.86	-0.10	7.57
31.371	26.72	37.86	-0.10	7.57
31.400	26.68	37.83	-0.10	7.57
31.430	26.68	37.83	-0.05	7.62
31.460	26.68	37.83	-0.05	7.62
31.490	26.68	37.83	-0.05	7.62
31.519	26.68	37.83	-0.01	7.65
31.549	26.68	37.83	-0.01	7.65
31.579	26.72	37.86	-0.01	7.65
31.609	26.72	37.86	-0.14	7.52
31.638	26.72	37.86	-0.14	7.52
31.668	26.69	37.83	-0.14	7.52
31.698	26.69	37.83	0.00	7.67
31.728	26.69	37.83	0.00	7.67
31.757	26.74	37.88	0.00	7.67
31.787	26.74	37.88	-0.11	7.56
31.817	26.74	37.88	-0.11	7.56
31.847	26.70	37.85	-0.11	7.56
31.876	26.70	37.85	-0.05	7.62
31.906	26.70	37.85	-0.05	7.62
31.936	26.73	37.87	-0.05	7.62
31.966	26.73	37.87	-0.02	7.65
31.996	26.73	37.87	-0.02	7.65
32.025	26.65	37.80	-0.02	7.65
32.055	26.65	37.80	-0.14	7.53
32.085	26.65	37.80	-0.14	7.53
32.115	26.67	37.82	-0.14	7.53
32.144	26.67	37.82	0.01	7.68
32.174	26.67	37.82	0.01	7.68
32.204	26.75	37.89	0.01	7.68
32.234	26.75	37.89	-0.11	7.56
32.263	26.75	37.89	-0.11	7.56
32.293	26.75	37.89	-0.11	7.56
32.323	26.75	37.89	-0.04	7.62
32.353	26.75	37.89	-0.04	7.62
32.382	26.68	37.83	-0.04	7.62
32.412	26.68	37.83	-0.02	7.64
32.442	26.68	37.83	-0.02	7.64
32.472	26.66	37.81	-0.02	7.64
32.501	26.66	37.81	-0.14	7.53
32.531	26.66	37.81	-0.14	7.53
32.561	26.79	37.93	-0.14	7.53
32.591	26.79	37.93	0.01	7.68
32.620	26.79	37.93	0.01	7.68
32.650	26.77	37.92	0.01	7.68
32.680	26.77	37.92	-0.11	7.55
32.710	26.77	37.92	-0.11	7.55
32.740	26.78	37.93	-0.11	7.55
32.769	26.78	37.93	-0.05	7.62
32.799	26.78	37.93	-0.05	7.62
32.829	26.80	37.94	-0.05	7.62
32.859	26.80	37.94	-0.03	7.64
32.888	26.80	37.94	-0.03	7.64
32.918	26.74	37.89	-0.03	7.64
32.948	26.74	37.89	-0.14	7.53
32.978	26.74	37.89	-0.14	7.53
33.007	26.75	37.90	-0.14	7.53
33.037	26.75	37.90	0.01	7.68
33.067	26.75	37.90	0.01	7.68
33.097	26.82	37.96	0.01	7.68
33.126	26.82	37.96	-0.11	7.55
33.156	26.82	37.96	-0.11	7.55
33.186	26.85	37.99	-0.11	7.55
33.216	26.85	37.99	-0.04	7.62
33.245	26.85	37.99	-0.04	7.62
33.275	26.69	37.84	-0.04	7.62
33.305	26.69	37.84	-0.04	7.63
33.335	26.69	37.84	-0.04	7.63
33.364	26.74	37.89	-0.04	7.63
33.394	26.74	37.89	-0.14	7.53
33.424	26.74	37.89	-0.14	7.53
33.454	26.76	37.91	-0.14	7.53
33.483	26.76	37.91	0.01	7.68
33.513	26.76	37.91	0.01	7.68
33.543	26.80	37.94	0.01	7.68
33.573	26.80	37.94	-0.12	7.55
33.603	26.80	37.94	-0.12	7.55
33.632	26.71	37.86	-0.12	7.55
33.662	26.71	37.86	-0.04	7.63
33.692	26.71	37.86	-0.04	7.63
33.722	26.71	37.86	-0.04	7.63
33.751	26.71	37.86	-0.04	7.63
33.781	26.71	37.86	-0.04	7.63
33.811	26.76	37.91	-0.04	7.63
33.841	26.76	37.91	-0.14	7.53
33.870	26.76	37.91	-0.14	7.53
33.900	26.78	37.93	-0.14	7.53
33.930	26.78	37.93	0.01	7.68
33.960	26.78	37.93	0.01	7.68
33.989	26.78	37.93	0.01	7.68
34.019	26.78	37.93	-0.12	7.55
34.049	26.78	37.93	-0.12	7.55
34.079	26.71	37.86	-0.12	7.55
34.108	26.71	37.86	-0.04	7.63
34.138	26.71	37.86	-0.04	7.63
34.168	26.73	37.87	-0.04	7.63
34.198	26.73	37.87	-0.05	7.62
34.227	26.73	37.87	-0.05	7.62
34.257	26.73	37.87	-0.05	7.62
34.287	26.73	37.87	-0.14	7.53
34.317	26.73	37.87	-0.14	7.53
34.347	26.76	37.91	-0.14	7.53
34.376	26.76	37.91	0.01	7.68
34.406	26.76	37.91	0.01	7.68
34.436	26.69	37.83	0.01	7.68
34.466	26.69	37.83	-0.12	7.55
34.495	26.69	37.83	-0.12	7.55
34.525	26.75	37.89	-0.12	7.55
34.555	26.75	37.89	-0.03	7.64
34.585	26.75	37.89	-0.03	7.64
34.614	26.69	37.83	-0.03	7.64
34.644	26.69	37.83	-0.05	7.62
34.674	26.69	37.83	-0.05	7.62
34.704	26.70	37.84	-0.05	7.62
34.733	26.70	37.84	-0.14	7.53
34.763	26.70	37.84	-0.14	7.53
34.793	26.70	37.84	-0.14	7.53
34.823	26.70	37.84	0.02	7.68
34.852	26.70	37.84	0.02	7.68
34.882	26.77	37.92	0.02	7.68
34.912	26.77	37.92	-0.12	7.54
34.942	26.77	37.92	-0.12	7.54
34.971	26.74	37.89	-0.12	7.54
35.001	26.74	37.89	-0.03	7.64
35.031	26.74	37.89	-0.03	7.64
35.061	26.62	37.77	-0.03	7.64
35.091	26.62	37.77	-0.05	7.62
35.120	26.62	37.77	-0.05	7.62
35.150	26.72	37.86	-0.05	7.62
35.180	26.72	37.86	-0.14	7.53
35.210	26.72	37.86	-0.14	7.53
35.239	26.81	37.95	-0.14	7.53
35.269	26.81	37.95	0.01	7.68
35.299	26.81	37.95	0.01	7.68
35.329	26.77	37.92	0.01	7.68
35.358	26.77	37.92	-0.12	7.54
35.388	26.77	37.92	-0.12	7.54
35.418	26.86	38.01	-0.12	7.54
35.448	26.86	38.01	-0.03	7.63
35.477	26.86	38.01	-0.03	7.63
35.507	26.77	37.92	-0.03	7.63
35.537	26.77	37.92	-0.06	7.61
35.567	26.77	37.92	-0.06	7.61
35.596	26.73	37.88	-0.06	7.61
35.626	26.73	37.88	-0.14	7.53
35.656	26.73	37.88	-0.14	7.53
35.686	26.71	37.86	-0.14	7.53
35.715	26.71	37.86	0.02	7.68
35.745	26.71	37.86	0.02	7.68
35.775	26.73	37.88	0.02	7.68
35.805	26.73	37.88	-0.13	7.54
35.834	26.73	37.88	-0.13	7.54
35.864	26.88	38.02	-0.13	7.54
35.894	26.88	38.02	-0.03	7.64
35.924	26.88	38.02	-0.03	7.64
35.953	26.73	37.87	-0.03	7.64
35.983	26.73	37.87	-0.06	7.61
36.013	26.73	37.87	-0.06	7.61
36.043	26.73	37.87	-0.06	7.61
36.073	26.73	37.87	-0.13	7.54
36.102	26.73	37.87	-0.13	7.54
36.132	26.80	37.94	-0.13	7.54
36.162	26.80	37.94	0.01	7.68
36.192	26.80	37.94	0.01	7.68
36.221	26.80	37.94	0.01	7.68
36.251	26.80	37.94	-0.13	7.54
36.281	26.80	37.94	-0.13	7.54
36.311	26.75	37.89	-0.13	7.54
36.340	26.75	37.89	-0.03	7.64
36.370	26.75	37.89	-0.03	7.64
36.400	26.69	37.83	-0.03	7.64
36.430	26.69	37.83	-0.07	7.60
36.459	26.69	37.83	-0.07	7.60
36.489	26.69	37.83	-0.07	7.60
36.519	26.69	37.83	-0.13	7.54
36.549	26.69	37.83	-0.13	7.54
36.578	26.70	37.84	-0.13	7.54
36.608	26.70	37.84	0.02	7.68
36.638	26.70	37.84	0.02	7.68
36.668	26.70	37.84	0.02	7.68
36.698	26.70	37.84	-0.13	7.54
36.727	26.70	37.84	-0.13	7.54
36.757	26.82	37.96	-0.13	7.54
36.787	26.82	37.96	-0.03	7.64
36.817	26.82	37.96	-0.03	7.64
36.846	26.71	37.85	-0.03	7.64
36.876	26.71	37.85	-0.07	7.60
36.906	26.71	37.85	-0.07	7.60
36.936	26.76	37.90	-0.07	7.60
36.965	26.76	37.90	-0.12	7.55
36.995	26.76	37.90	-0.12	7.55
37.025	26.79	37.93	-0.12	7.55
37.055	26.79	37.93	0.02	7.68
37.084	26.79	37.93	0.02	7.68
37.114	26.78	37.92	0.02	7.68
37.144	26.78	37.92	-0.13	7.54
37.174	26.78	37.92	-0.13	7.54
37.203	26.80	37.94	-0.13	7.54
37.233	26.80	37.94	-0.03	7.64
37.263	26.80	37.94	-0.03	7.64
37.293	26.74	37.88	-0.03	7.64
37.322	26.74	37.88	-0.07	7.60
37.352	26.74	37.88	-0.07	7.60
37.382	26.64	37.79	-0.07	7.60
37.412	26.64	37.79	-0.12	7.55
37.442	26.64	37.79	-0.12	7.55
37.471	26.67	37.81	-0.12	7.55
37.501	26.67	37.81	0.01	7.68
37.531	26.67	37.81	0.01	7.68
37.561	26.69	37.84	0.01	7.68
37.590	26.69	37.84	-0.14	7.53
37.620	26.69	37.84	-0.14	7.53
37.650	26.78	37.93	-0.14	7.53
37.680	26.78	37.93	-0.03	7.64
37.709	26.78	37.93	-0.03	7.64
37.739	26.66	37.81	-0.03	7.64
37.769	26.66	37.81	-0.08	7.59
37.799	26.66	37.81	-0.08	7.59
37.828	26.64	37.78	-0.08	7.59
37.858	26.64	37.78	-0.12	7.55
37.888	26.64	37.78	-0.12	7.55
37.918	26.74	37.88	-0.12	7.55
37.947	26.74	37.88	0.01	7.68
37.977	26.74	37.88	0.01	7.68
38.007	26.66	37.80	0.01	7.68
38.037	26.66	37.80	-0.13	7.53
38.066	26.66	37.80	-0.13	7.53
38.096	26.76	37.91	-0.13	7.53
38.126	26.76	37.91	-0.02	7.64
38.156	26.76	37.91	-0.02	7.64
38.185	26.75	37.89	-0.02	7.64
38.215	26.75	37.89	-0.08	7.59
38.245	26.75	37.89	-0.08	7.59
38.275	26.68	37.82	-0.08	7.59
38.305	26.68	37.82	-0.11	7.56
38.334	26.68	37.82	-0.11	7.56
38.364	26.69	37.83	-0.11	7.56
38.394	26.69	37.83	0.01	7.68
38.424	26.69	37.83	0.01	7.68
38.453	26.71	37.86	0.01	7.68
38.483	26.71	37.86	-0.13	7.53
38.513	26.71	37.86	-0.13	7.53
38.543	26.75	37.90	-0.13	7.53
38.572	26.75	37.90	-0.02	7.64
38.602	26.75	37.90	-0.02	7.64
38.632	26.65	37.79	-0.02	7.64
38.662	26.65	37.79	-0.08	7.59
38.691	26.65	37.79	-0.08	7.59
38.721	26.66	37.80	-0.08	7.59
38.751	26.66	37.80	-0.11	7.56
38.781	26.66	37.80	-0.11	7.56
38.810	26.67	37.81	-0.11	7.56
38.840	26.67	37.81	0.01	7.68
38.870	26.67	37.81	0.01	7.68
38.900	26.65	37.80	0.01	7.68
38.929	26.65	37.80	-0.14	7.53
38.959	26.65	37.80	-0.14	7.53
38.989	26.65	37.79	-0.14	7.53
39.019	26.65	37.79	-0.02	7.64
39.048	26.65	37.79	-0.02	7.64
39.078	26.69	37.84	-0.02	7.64
39.108	26.69	37.84	-0.08	7.59
39.138	26.69	37.84	-0.08	7.59
39.168	26.69	37.83	-0.08	7.59
39.197	26.69	37.83	-0.11	7.56
39.227	26.69	37.83	-0.11	7.56
39.257	26.65	37.79	-0.11	7.56
39.287	26.65	37.79	0.01	7.68
39.316	26.65	37.79	0.01	7.68
39.346	26.64	37.78	0.01	7.68
39.376	26.64	37.78	-0.14	7.53
39.406	26.64	37.78	-0.14	7.53
39.435	26.74	37.89	-0.14	7.53
39.465	26.74	37.89	-0.02	7.65
39.495	26.74	37.89	-0.02	7.65
39.525	26.72	37.86	-0.02	7.65
39.554	26.72	37.86	-0.09	7.58
39.584	26.72	37.86	-0.09	7.58
39.614	26.67	37.82	-0.09	7.58
39.644	26.67	37.82	-0.10	7.57
39.673	26.67	37.82	-0.10	7.57
39.703	26.65	37.79	-0.10	7.57
39.733	26.65	37.79	0.01	7.68
39.763	26.65	37.79	0.01	7.68
39.792	26.58	37.73	0.01	7.68
39.822	26.58	37.73	-0.14	7.53
39.852	26.58	37.73	-0.14	7.53
39.882	26.64	37.78	-0.14	7.53
39.912	26.64	37.78	-0.02	7.65
39.941	26.64	37.78	-0.02	7.65
39.971	26.70	37.84	-0.02	7.65
40.001	26.70	37.84	-0.09	7.58
40.031	26.70	37.84	-0.09	7.58
40.060	26.61	37.76	-0.09	7.58
40.090	26.61	37.76	-0.10	7.57
40.120	26.61	37.76	-0.10	7.57
40.150	26.60	37.74	-0.10	7.57
40.179	26.60	37.74	0.01	7.68
40.209	26.60	37.74	0.01	7.68
40.239	26.60	37.74	0.01	7.68
40.269	26.60	37.74	-0.14	7.53
40.298	26.60	37.74	-0.14	7.53
40.328	26.68	37.83	-0.14	7.53
40.358	26.68	37.83	-0.01	7.65
40.388	26.68	37.83	-0.01	7.65
40.417	26.63	37.78	-0.01	7.65
40.447	26.63	37.78	-0.09	7.58
40.477	26.63	37.78	-0.09	7.58
40.507	26.64	37.78	-0.09	7.58
40.536	26.64	37.78	-0.09	7.57
40.566	26.64	37.78	-0.09	7.57
40.596	26.64	37.79	-0.09	7.57
40.626	26.64	37.79	0.01	7.68
40.655	26.64	37.79	0.01	7.68
40.685	26.59	37.74	0.01	7.68
40.715	26.59	37.74	-0.14	7.53
40.745	26.59	37.74	-0.14	7.53
40.775	26.64	37.78	-0.14	7.53
40.804	26.64	37.78	-0.01	7.65
40.834	26.64	37.78	-0.01	7.65
40.864	26.59	37.74	-0.01	7.65
40.894	26.59	37.74	-0.10	7.57
40.923	26.59	37.74	-0.10	7.57
40.953	26.67	37.81	-0.10	7.57
40.983	26.67	37.81	-0.09	7.58
41.013	26.67	37.81	-0.09	7.58
41.042	26.65	37.79	-0.09	7.58
41.072	26.65	37.79	0.00	7.67
41.102	26.65	37.79	0.00	7.67
41.132	26.58	37.72	0.00	7.67
41.162	26.58	37.72	-0.14	7.53
41.191	26.58	37.72	-0.14	7.53
41.221	26.69	37.83	-0.14	7.53
41.251	26.69	37.83	-0.01	7.66
41.281	26.69	37.83	-0.01	7.66
41.310	26.73	37.88	-0.01	7.66
41.340	26.73	37.88	-0.10	7.57
41.370	26.73	37.88	-0.10	7.57
41.400	26.70	37.84	-0.10	7.57
41.429	26.70	37.84	-0.08	7.59
41.459	26.70	37.84	-0.08	7.59
41.489	26.73	37.88	-0.08	7.59
41.519	26.73	37.88	0.01	7.68
41.548	26.73	37.88	0.01	7.68
41.578	26.69	37.83	0.01	7.68
41.608	26.69	37.83	-0.14	7.53
41.638	26.69	37.83	-0.14	7.53
41.667	26.73	37.88	-0.14	7.53
41.697	26.73	37.88	-0.01	7.66
41.727	26.73	37.88	-0.01	7.66
41.757	26.67	37.82	-0.01	7.66
41.786	26.67	37.82	-0.09	7.57
41.816	26.67	37.82	-0.09	7.57
41.846	26.70	37.85	-0.09	7.57
41.876	26.70	37.85	-0.08	7.59
41.906	26.70	37.85	-0.08	7.59
41.935	26.64	37.78	-0.08	7.59
41.965	26.64	37.78	0.00	7.67
41.995	26.64	37.78	0.00	7.67
42.025	26.65	37.79	0.00	7.67
42.054	26.65	37.79	-0.14	7.52
42.084	26.65	37.79	-0.14	7.52
42.114	26.78	37.93	-0.14	7.52
42.144	26.78	37.93	-0.01	7.66
42.173	26.78	37.93	-0.01	7.66
42.203	26.80	37.94	-0.01	7.66
42.233	26.80	37.94	-0.10	7.57
42.263	26.80	37.94	-0.10	7.57
42.292	26.69	37.84	-0.10	7.57
42.322	26.69	37.84	-0.07	7.60
42.352	26.69	37.84	-0.07	7.60
42.382	26.69	37.84	-0.07	7.60
42.411	26.69	37.84	0.01	7.67
42.441	26.69	37.84	0.01	7.67
42.471	26.72	37.87	0.01	7.67
42.501	26.72	37.87	-0.15	7.52
42.531	26.72	37.87	-0.15	7.52
42.560	26.71	37.85	-0.15	7.52
42.590	26.71	37.85	-0.01	7.66
42.620	26.71	37.85	-0.01	7.66
42.650	26.79	37.93	-0.01	7.66
42.679	26.79	37.93	-0.09	7.57
42.709	26.79	37.93	-0.09	7.57
42.739	26.69	37.83	-0.09	7.57
42.769	26.69	37.83	-0.07	7.60
42.798	26.69	37.83	-0.07	7.60
42.828	26.77	37.91	-0.07	7.60
42.858	26.77	37.91	0.00	7.67
42.888	26.77	37.91	0.00	7.67
42.917	26.80	37.94	0.00	7.67
42.947	26.80	37.94	-0.15	7.52
42.977	26.80	37.94	-0.15	7.52
43.007	26.85	37.99	-0.15	7.52
43.036	26.85	37.99	-0.00	7.67
43.066	26.85	37.99	-0.00	7.67
43.096	26.79	37.94	-0.00	7.67
43.126	26.79	37.94	-0.10	7.57
43.156	26.79	37.94	-0.10	7.57
43.185	26.78	37.93	-0.10	7.57
43.215	26.78	37.93	-0.07	7.60
43.245	26.78	37.93	-0.07	7.60
43.275	26.77	37.91	-0.07	7.60
43.304	26.77	37.91	0.00	7.67
43.334	26.77	37.91	0.00	7.67
43.364	26.86	38.00	0.00	7.67
43.394	26.86	38.00	-0.15	7.52
43.423	26.86	38.00	-0.15	7.52
43.453	26.81	37.96	-0.15	7.52
43.483	26.81	37.96	0.00	7.67
43.513	26.81	37.96	0.00	7.67
43.542	26.85	38.00	0.00	7.67
43.572	26.85	38.00	-0.10	7.57
43.602	26.85	38.00	-0.10	7.57
43.632	26.79	37.93	-0.10	7.57
43.661	26.79	37.93	-0.06	7.61
43.691	26.79	37.93	-0.06	7.61
43.721	26.79	37.94	-0.06	7.61
43.751	26.79	37.94	-0.00	7.67
43.781	26.79	37.94	-0.00	7.67
43.810	26.72	37.86	-0.00	7.67
43.840	26.72	37.86	-0.14	7.52
43.870	26.72	37.86	-0.14	7.52
43.900	26.89	38.04	-0.14	7.52
43.929	26.89	38.04	0.00	7.67
43.959	26.89	38.04	0.00	7.67
43.989	26.82	37.97	0.00	7.67
44.019	26.82	37.97	-0.11	7.56
44.048	26.82	37.97	-0.11	7.56
44.078	26.77	37.92	-0.11	7.56
44.108	26.77	37.92	-0.06	7.61
44.138	26.77	37.92	-0.06	7.61
44.167	26.75	37.89	-0.06	7.61
44.197	26.75	37.89	-0.01	7.66
44.227	26.75	37.89	-0.01	7.66
44.257	26.81	37.96	-0.01	7.66
44.286	26.81	37.96	-0.15	7.52
44.316	26.81	37.96	-0.15	7.52
44.346	26.83	37.98	-0.15	7.52
44.376	26.83	37.98	0.01	7.67
44.406	26.83	37.98	0.01	7.67
44.435	26.84	37.98	0.01	7.67
44.465	26.84	37.98	-0.10	7.57
44.495	26.84	37.98	-0.10	7.57
44.525	26.82	37.96	-0.10	7.57
44.554	26.82	37.96	-0.06	7.61
44.584	26.82	37.96	-0.06	7.61
44.614	26.77	37.92	-0.06	7.61
44.644	26.77	37.92	-0.01	7.66
44.673	26.77	37.92	-0.01	7.66
44.703	26.76	37.90	-0.01	7.66
44.733	26.76	37.90	-0.15	7.52
44.763	26.76	37.90	-0.15	7.52
44.792	26.83	37.97	-0.15	7.52
44.822	26.83	37.97	0.00	7.67
44.852	26.83	37.97	0.00	7.67
44.882	26.82	37.96	0.00	7.67
44.911	26.82	37.96	-0.10	7.57
44.941	26.82	37.96	-0.10	7.57
44.971	26.81	37.96	-0.10	7.57
45.001	26.81	37.96	-0.05	7.61
45.030	26.81	37.96	-0.05	7.61
45.060	26.81	37.95	-0.05	7.61
45.090	26.81	37.95	-0.01	7.66
45.120	26.81	37.95	-0.01	7.66
45.149	26.80	37.94	-0.01	7.66
45.179	26.80	37.94	-0.14	7.52
45.209	26.80	37.94	-0.14	7.52
45.239	26.76	37.90	-0.14	7.52
45.269	26.76	37.90	0.00	7.67
45.298	26.76	37.90	0.00	7.67
45.328	26.79	37.93	0.00	7.67
45.358	26.79	37.93	-0.10	7.56
45.388	26.79	37.93	-0.10	7.56
45.417	26.78	37.93	-0.10	7.56
45.447	26.78	37.93	-0.05	7.62
45.477	26.78	37.93	-0.05	7.62
45.507	26.66	37.80	-0.05	7.62
45.536	26.66	37.80	-0.01	7.65
45.566	26.66	37.80	-0.01	7.65
45.596	26.66	37.81	-0.01	7.65
45.626	26.66	37.81	-0.14	7.53
45.655	26.66	37.81	-0.14	7.53
45.685	26.78	37.93	-0.14	7.53
45.715	26.78	37.93	0.00	7.67
45.745	26.78	37.93	0.00	7.67
45.774	26.78	37.92	0.00	7.67
45.804	26.78	37.92	-0.10	7.56
45.834	26.78	37.92	-0.10	7.56
45.864	26.72	37.86	-0.10	7.56
45.893	26.72	37.86	-0.05	7.62
45.923	26.72	37.86	-0.05	7.62
45.953	26.73	37.87	-0.05	7.62
45.983	26.73	37.87	-0.01	7.65
46.013	26.73	37.87	-0.01	7.65
46.042	26.72	37.87	-0.01	7.65
46.072	26.72	37.87	-0.14	7.53
46.102	26.72	37.87	-0.14	7.53
46.132	26.71	37.86	-0.14	7.53
46.161	26.71	37.86	0.00	7.67
46.191	26.71	37.86	0.00	7.67
46.221	26.81	37.95	0.00	7.67
46.251	26.81	37.95	-0.10	7.57
46.280	26.81	37.95	-0.10	7.57
46.310	26.76	37.90	-0.10	7.57
46.340	26.76	37.90	-0.05	7.62
46.370	26.76	37.90	-0.05	7.62
46.399	26.76	37.90	-0.05	7.62
46.429	26.76	37.90	-0.01	7.65
46.459	26.76	37.90	-0.01	7.65
46.489	26.74	37.88	-0.01	7.65
46.518	26.74	37.88	-0.14	7.53
46.548	26.74	37.88	-0.14	7.53
46.578	26.79	37.93	-0.14	7.53
46.608	26.79	37.93	0.00	7.67
46.637	26.79	37.93	0.00	7.67
46.667	26.78	37.93	0.00	7.67
46.697	26.78	37.93	-0.11	7.56
46.727	26.78	37.93	-0.11	7.56
46.756	26.81	37.96	-0.11	7.56
46.786	26.81	37.96	-0.05	7.62
46.816	26.81	37.96	-0.05	7.62
46.846	26.80	37.94	-0.05	7.62
46.875	26.80	37.94	-0.02	7.65
46.905	26.80	37.94	-0.02	7.65
46.935	26.84	37.98	-0.02	7.65
46.965	26.84	37.98	-0.14	7.52
46.995	26.84	37.98	-0.14	7.52
47.024	26.83	37.98	-0.14	7.52
47.054	26.83	37.98	0.01	7.67
47.084	26.83	37.98	0.01	7.67
47.114	26.81	37.95	0.01	7.67
47.143	26.81	37.95	-0.11	7.56
47.173	26.81	37.95	-0.11	7.56
47.203	26.76	37.91	-0.11	7.56
47.233	26.76	37.91	-0.05	7.62
47.262	26.76	37.91	-0.05	7.62
47.292	26.74	37.89	-0.05	7.62
47.322	26.74	37.89	-0.02	7.65
47.352	26.74	37.89	-0.02	7.65
47.381	26.79	37.93	-0.02	7.65
47.411	26.79	37.93	-0.14	7.53
47.441	26.79	37.93	-0.14	7.53
47.471	26.89	38.04	-0.14	7.53
47.500	26.89	38.04	0.00	7.67
47.530	26.89	38.04	0.00	7.67
47.560	26.81	37.96	0.00	7.67
47.590	26.81	37.96	-0.11	7.56
47.620	26.81	37.96	-0.11	7.56
47.649	26.76	37.90	-0.11	7.56
47.679	26.76	37.90	-0.05	7.62
47.709	26.76	37.90	-0.05	7.62
47.739	26.78	37.93	-0.05	7.62
47.768	26.78	37.93	-0.02	7.64
47.798	26.78	37.93	-0.02	7.64
47.828	26.81	37.96	-0.02	7.64
47.858	26.81	37.96	-0.14	7.53
47.887	26.81	37.96	-0.14	7.53
47.917	26.75	37.90	-0.14	7.53
47.947	26.75	37.90	0.01	7.68
47.977	26.75	37.90	0.01	7.68
48.006	26.78	37.92	0.01	7.68
48.036	26.78	37.92	-0.11	7.56
48.066	26.78	37.92	-0.11	7.56
48.096	26.75	37.90	-0.11	7.56
48.125	26.75	37.90	-0.05	7.62
48.155	26.75	37.90	-0.05	7.62
48.185	26.74	37.89	-0.05	7.62
48.215	26.74	37.89	-0.02	7.64
48.245	26.74	37.89	-0.02	7.64
48.274	26.76	37.90	-0.02	7.64
48.304	26.76	37.90	-0.14	7.53
48.334	26.76	37.90	-0.14	7.53
48.364	26.84	37.98	-0.14	7.53
48.393	26.84	37.98	0.01	7.68
48.423	26.84	37.98	0.01	7.68
48.453	26.85	37.99	0.01	7.68
48.483	26.85	37.99	-0.11	7.55
48.512	26.85	37.99	-0.11	7.55
48.542	26.76	37.91	-0.11	7.55
48.572	26.76	37.91	-0.05	7.62
48.602	26.76	37.91	-0.05	7.62
48.631	26.79	37.94	-0.05	7.62
48.661	26.79	37.94	-0.03	7.64
48.691	26.79	37.94	-0.03	7.64
48.721	26.80	37.94	-0.03	7.64
48.750	26.80	37.94	-0.14	7.52
48.780	26.80	37.94	-0.14	7.52
48.810	26.76	37.91	-0.14	7.52
48.840	26.76	37.91	0.01	7.68
48.869	26.76	37.91	0.01	7.68
48.899	26.79	37.93	0.01	7.68
48.929	26.79	37.93	-0.12	7.55
48.959	26.79	37.93	-0.12	7.55
48.989	26.71	37.85	-0.12	7.55
49.018	26.71	37.85	-0.05	7.62
49.048	26.71	37.85	-0.05	7.62
49.078	26.72	37.86	-0.05	7.62
49.108	26.72	37.86	-0.03	7.63
49.137	26.72	37.86	-0.03	7.63
49.167	26.74	37.88	-0.03	7.63
49.197	26.74	37.88	-0.14	7.52
49.227	26.74	37.88	-0.14	7.52
49.256	26.73	37.87	-0.14	7.52
49.286	26.73	37.87	0.01	7.68
49.316	26.73	37.87	0.01	7.68
49.346	26.78	37.92	0.01	7.68
49.375	26.78	37.92	-0.12	7.55
49.405	26.78	37.92	-0.12	7.55
49.435	26.73	37.87	-0.12	7.55
49.465	26.73	37.87	-0.04	7.63
49.494	26.73	37.87	-0.04	7.63
49.524	26.68	37.82	-0.04	7.63
49.554	26.68	37.82	-0.03	7.63
49.584	26.68	37.82	-0.03	7.63
49.614	26.78	37.92	-0.03	7.63
49.643	26.78	37.92	-0.14	7.53
49.673	26.78	37.92	-0.14	7.53
49.703	26.73	37.87	-0.14	7.53
49.733	26.73	37.87	0.01	7.68
49.762	26.73	37.87	0.01	7.68
49.792	26.78	37.93	0.01	7.68
49.822	26.78	37.93	-0.12	7.55
49.852	26.78	37.93	-0.12	7.55
49.881	26.74	37.89	-0.12	7.55
49.911	26.74	37.89	-0.04	7.62
49.941	26.74	37.89	-0.04	7.62
49.971	26.70	37.85	-0.04	7.62
50.000	26.70	37.85	-0.03	7.64
50.030	26.70	37.85	-0.03	7.64
50.060	26.76	37.91	-0.03	7.64
50.090	26.76	37.91	-0.14	7.52
50.119	26.76	37.91	-0.14	7.52
50.149	26.80	37.95	-0.14	7.52
50.179	26.80	37.95	0.01	7.68
50.209	26.80	37.95	0.01	7.68
50.239	26.85	37.99	0.01	7.68
50.268	26.85	37.99	-0.11	7.55
50.298	26.85	37.99	-0.11	7.55
50.328	26.84	37.99	-0.11	7.55
50.358	26.84	37.99	-0.04	7.63
50.387	26.84	37.99	-0.04	7.63
50.417	26.77	37.92	-0.04	7.63
50.447	26.77	37.92	-0.03	7.64
50.477	26.77	37.92	-0.03	7.64
50.506	26.83	37.97	-0.03	7.64
50.536	26.83	37.97	-0.14	7.53
50.566	26.83	37.97	-0.14	7.53
50.596	26.74	37.89	-0.14	7.53
50.625	26.74	37.89	0.01	7.68
50.655	26.74	37.89	0.01	7.68
50.685	26.79	37.93	0.01	7.68
50.715	26.79	37.93	-0.11	7.55
50.744	26.79	37.93	-0.11	7.55
50.774	26.76	37.90	-0.11	7.55
50.804	26.76	37.90	-0.04	7.62
50.834	26.76	37.90	-0.04	7.62
50.863	26.78	37.93	-0.04	7.62
50.893	26.78	37.93	-0.03	7.63
50.923	26.78	37.93	-0.03	7.63
50.953	26.81	37.95	-0.03	7.63
50.983	26.81	37.95	-0.14	7.52
51.012	26.81	37.95	-0.14	7.52
51.042	26.72	37.86	-0.14	7.52
51.072	26.72	37.86	0.01	7.68
51.102	26.72	37.86	0.01	7.68
51.131	26.89	38.04	0.01	7.68
51.161	26.89	38.04	-0.12	7.55
51.191	26.89	38.04	-0.12	7.55
51.221	26.80	37.94	-0.12	7.55
51.250	26.80	37.94	-0.04	7.63
51.280	26.80	37.94	-0.04	7.63
51.310	26.80	37.95	-0.04	7.63
51.340	26.80	37.95	-0.03	7.64
51.369	26.80	37.95	-0.03	7.64
51.399	26.81	37.95	-0.03	7.64
51.429	26.81	37.95	-0.14	7.52
51.459	26.81	37.95	-0.14	7.52
51.488	26.81	37.95	-0.14	7.52
51.518	26.81	37.95	0.01	7.68
51.548	26.81	37.95	0.01	7.68
51.578	26.73	37.88	0.01	7.68
51.607	26.73	37.88	-0.12	7.55
51.637	26.73	37.88	-0.12	7.55
51.667	26.80	37.94	-0.12	7.55
51.697	26.80	37.94	-0.05	7.62
51.726	26.80	37.94	-0.05	7.62
51.756	26.75	37.90	-0.05	7.62
51.786	26.75	37.90	-0.03	7.64
51.816	26.75	37.90	-0.03	7.64
51.846	26.71	37.85	-0.03	7.64
51.875	26.71	37.85	-0.14	7.53
51.905	26.71	37.85	-0.14	7.53
51.935	26.73	37.87	-0.14	7.53
51.965	26.73	37.87	0.01	7.68
51.994	26.73	37.87	0.01	7.68
52.024	26.85	37.99	0.01	7.68
52.054	26.85	37.99	-0.12	7.55
52.084	26.85	37.99	-0.12	7.55
52.113	26.76	37.90	-0.12	7.55
52.143	26.76	37.90	-0.04	7.62
52.173	26.76	37.90	-0.04	7.62
52.203	26.76	37.90	-0.04	7.62
52.232	26.76	37.90	-0.03	7.64
52.262	26.76	37.90	-0.03	7.64
52.292	26.78	37.92	-0.03	7.64
52.322	26.78	37.92	-0.14	7.53
52.352	26.78	37.92	-0.14	7.53
52.381	26.76	37.90	-0.14	7.53
52.411	26.76	37.90	0.01	7.68
52.441	26.76	37.90	0.01	7.68
52.471	26.73	37.88	0.01	7.68
52.500	26.73	37.88	-0.11	7.55
52.530	26.73	37.88	-0.11	7.55
52.560	26.77	37.92	-0.11	7.55
52.590	26.77	37.92	-0.05	7.62
52.619	26.77	37.92	-0.05	7.62
52.649	26.74	37.89	-0.05	7.62
52.679	26.74	37.89	-0.02	7.64
52.709	26.74	37.89	-0.02	7.64
52.738	26.72	37.87	-0.02	7.64
52.768	26.72	37.87	-0.14	7.53
52.798	26.72	37.87	-0.14	7.53
52.828	26.71	37.86	-0.14	7.53
52.857	26.71	37.86	0.00	7.67
52.887	26.71	37.86	0.00	7.67
52.917	26.78	37.93	0.00	7.67
52.947	26.78	37.93	-0.11	7.56
52.977	26.78	37.93	-0.11	7.56
53.006	26.67	37.82	-0.11	7.56
53.036	26.67	37.82	-0.05	7.62
53.066	26.67	37.82	-0.05	7.62
53.096	26.70	37.85	-0.05	7.62
53.125	26.70	37.85	-0.02	7.65
53.155	26.70	37.85	-0.02	7.65
53.185	26.75	37.89	-0.02	7.65
53.215	26.75	37.89	-0.14	7.53
53.244	26.75	37.89	-0.14	7.53
53.274	26.76	37.90	-0.14	7.53
53.304	26.76	37.90	0.01	7.68
53.334	26.76	37.90	0.01	7.68
53.363	26.76	37.90	0.01	7.68
53.393	26.76	37.90	-0.11	7.56
53.423	26.76	37.90	-0.11	7.56
53.453	26.81	37.96	-0.11	7.56
53.482	26.81	37.96	-0.05	7.62
53.512	26.81	37.96	-0.05	7.62
53.542	26.73	37.88	-0.05	7.62
53.572	26.73	37.88	-0.02	7.64
53.601	26.73	37.88	-0.02	7.64
53.631	26.68	37.82	-0.02	7.64
53.661	26.68	37.82	-0.14	7.53
53.691	26.68	37.82	-0.14	7.53
53.721	26.67	37.82	-0.14	7.53
53.750	26.67	37.82	0.01	7.67
53.780	26.67	37.82	0.01	7.67
53.810	26.82	37.96	0.01	7.67
53.840	26.82	37.96	-0.11	7.56
53.869	26.82	37.96	-0.11	7.56
53.899	26.76	37.90	-0.11	7.56
53.929	26.76	37.90	-0.05	7.62
53.959	26.76	37.90	-0.05	7.62
53.988	26.72	37.86	-0.05	7.62
54.018	26.72	37.86	-0.02	7.65
54.048	26.72	37.86	-0.02	7.65
54.078	26.69	37.84	-0.02	7.65
54.107	26.69	37.84	-0.14	7.52
54.137	26.69	37.84	-0.14	7.52
54.167	26.68	37.83	-0.14	7.52
54.197	26.68	37.83	0.01	7.67
54.226	26.68	37.83	0.01	7.67
54.256	26.76	37.90	0.01	7.67
54.286	26.76	37.90	-0.10	7.56
54.316	26.76	37.90	-0.10	7.56
54.346	26.86	38.00	-0.10	7.56
54.375	26.86	38.00	-0.05	7.62
54.405	26.86	38.00	-0.05	7.62
54.435	26.71	37.86	-0.05	7.62
54.465	26.71	37.86	-0.01	7.65
54.494	26.71	37.86	-0.01	7.65
54.524	26.81	37.96	-0.01	7.65
54.554	26.81	37.96	-0.15	7.52
54.584	26.81	37.96	-0.15	7.52
54.613	26.79	37.93	-0.15	7.52
54.643	26.79	37.93	0.00	7.67
54.673	26.79	37.93	0.00	7.67
54.703	26.84	37.99	0.00	7.67
54.732	26.84	37.99	-0.10	7.57
54.762	26.84	37.99	-0.10	7.57
54.792	26.83	37.97	-0.10	7.57
54.822	26.83	37.97	-0.05	7.61
54.851	26.83	37.97	-0.05	7.61
54.881	26.75	37.89	-0.05	7.61
54.911	26.75	37.89	-0.01	7.66
54.941	26.75	37.89	-0.01	7.66
54.970	26.73	37.88	-0.01	7.66
55.000	26.73	37.88	-0.15	7.52
55.030	26.73	37.88	-0.15	7.52
55.060	26.83	37.98	-0.15	7.52
55.090	26.83	37.98	0.01	7.67
55.119	26.83	37.98	0.01	7.67
55.149	26.82	37.96	0.01	7.67
55.179	26.82	37.96	-0.10	7.57
55.209	26.82	37.96	-0.10	7.57
55.238	26.89	38.04	-0.10	7.57
55.268	26.89	38.04	-0.06	7.61
55.298	26.89	38.04	-0.06	7.61
55.328	26.82	37.97	-0.06	7.61
55.357	26.82	37.97	-0.00	7.67
55.387	26.82	37.97	-0.00	7.67
55.417	26.85	37.99	-0.00	7.67
55.447	26.85	37.99	-0.14	7.53
55.476	26.85	37.99	-0.14	7.53
55.506	26.86	38.00	-0.14	7.53
55.536	26.86	38.00	0.00	7.67
55.566	26.86	38.00	0.00	7.67
55.595	26.90	38.05	0.00	7.67
55.625	26.90	38.05	-0.10	7.57
55.655	26.90	38.05	-0.10	7.57
55.685	26.95	38.10	-0.10	7.57
55.714	26.95	38.10	-0.06	7.60
55.744	26.95	38.10	-0.06	7.60
55.774	26.87	38.01	-0.06	7.60
55.804	26.87	38.01	0.00	7.67
55.834	26.87	38.01	0.00	7.67
55.863	26.85	38.00	0.00	7.67
55.893	26.85	38.00	-0.15	7.52
55.923	26.85	38.00	-0.15	7.52
55.952	26.83	37.97	-0.15	7.52
55.982	26.83	37.97	0.00	7.67
56.012	26.83	37.97	0.00	7.67
56.042	26.80	37.95	0.00	7.67
56.072	26.80	37.95	-0.10	7.57
56.101	26.80	37.95	-0.10	7.57
56.131	26.86	38.01	-0.10	7.57
56.161	26.86	38.01	-0.07	7.60
56.191	26.86	38.01	-0.07	7.60
56.220	26.81	37.96	-0.07	7.60
56.250	26.81	37.96	0.01	7.67
56.280	26.81	37.96	0.01	7.67
56.310	26.81	37.95	0.01	7.67
56.339	26.81	37.95	-0.15	7.52
56.369	26.81	37.95	-0.15	7.52
56.399	26.79	37.93	-0.15	7.52
56.429	26.79	37.93	-0.00	7.66
56.458	26.79	37.93	-0.00	7.66
56.488	26.86	38.00	-0.00	7.66
56.518	26.86	38.00	-0.10	7.57
56.548	26.86	38.00	-0.10	7.57
56.577	26.77	37.92	-0.10	7.57
56.607	26.77	37.92	-0.07	7.59
56.637	26.77	37.92	-0.07	7.59
56.667	26.74	37.89	-0.07	7.59
56.696	26.74	37.89	0.01	7.68
56.726	26.74	37.89	0.01	7.68
56.756	26.74	37.89	0.01	7.68
56.786	26.74	37.89	-0.14	7.53
56.816	26.74	37.89	-0.14	7.53
56.845	26.74	37.88	-0.14	7.53
56.875	26.74	37.88	-0.01	7.66
56.905	26.74	37.88	-0.01	7.66
56.935	26.71	37.85	-0.01	7.66
56.964	26.71	37.85	-0.10	7.57
56.994	26.71	37.85	-0.10	7.57
57.024	26.73	37.88	-0.10	7.57
57.054	26.73	37.88	-0.08	7.59
57.083	26.73	37.88	-0.08	7.59
57.113	26.77	37.92	-0.08	7.59
57.143	26.77	37.92	0.01	7.68
57.173	26.77	37.92	0.01	7.68
57.202	26.80	37.94	0.01	7.68
57.232	26.80	37.94	-0.14	7.53
57.262	26.80	37.94	-0.14	7.53
57.292	26.79	37.93	-0.14	7.53
57.322	26.79	37.93	-0.01	7.66
57.351	26.79	37.93	-0.01	7.66
57.381	26.86	38.00	-0.01	7.66
57.411	26.86	38.00	-0.10	7.57
57.441	26.86	38.00	-0.10	7.57
57.470	26.85	37.99	-0.10	7.57
57.500	26.85	37.99	-0.09	7.58
57.530	26.85	37.99	-0.09	7.58
57.560	26.76	37.90	-0.09	7.58
57.589	26.76	37.90	0.01	7.68
57.619	26.76	37.90	0.01	7.68
57.649	26.81	37.95	0.01	7.68
57.679	26.81	37.95	-0.14	7.52
57.708	26.81	37.95	-0.14	7.52
57.738	26.84	37.99	-0.14	7.52
57.768	26.84	37.99	-0.01	7.66
57.798	26.84	37.99	-0.01	7.66
57.827	26.74	37.89	-0.01	7.66
57.857	26.74	37.89	-0.09	7.57
57.887	26.74	37.89	-0.09	7.57
57.917	26.88	38.02	-0.09	7.57
57.946	26.88	38.02	-0.10	7.57
57.976	26.88	38.02	-0.10	7.57
58.006	26.77	37.91	-0.10	7.57
58.036	26.77	37.91	0.01	7.68
58.066	26.77	37.91	0.01	7.68
58.095	26.75	37.90	0.01	7.68
58.125	26.75	37.90	-0.14	7.53
58.155	26.75	37.90	-0.14	7.53
58.185	26.76	37.91	-0.14	7.53
58.214	26.76	37.91	-0.01	7.65
58.244	26.76	37.91	-0.01	7.65
58.274	26.81	37.96	-0.01	7.65
58.304	26.81	37.96	-0.09	7.58
58.333	26.81	37.96	-0.09	7.58
58.363	26.82	37.96	-0.09	7.58
58.393	26.82	37.96	-0.10	7.57
58.423	26.82	37.96	-0.10	7.57
58.452	26.77	37.92	-0.10	7.57
58.482	26.77	37.92	0.01	7.68
58.512	26.77	37.92	0.01	7.68
58.542	26.74	37.88	0.01	7.68
58.571	26.74	37.88	-0.14	7.53
58.601	26.74	37.88	-0.14	7.53
58.631	26.80	37.94	-0.14	7.53
58.661	26.80	37.94	-0.02	7.65
58.690	26.80	37.94	-0.02	7.65
58.720	26.74	37.89	-0.02	7.65
58.750	26.74	37.89	-0.08	7.59
58.780	26.74	37.89	-0.08	7.59
58.810	26.86	38.00	-0.08	7.59
58.839	26.86	38.00	-0.10	7.57
58.869	26.86	38.00	-0.10	7.57
58.899	26.77	37.92	-0.10	7.57
58.929	26.77	37.92	0.01	7.68
58.958	26.77	37.92	0.01	7.68
58.988	26.76	37.90	0.01	7.68
59.018	26.76	37.90	-0.14	7.53
59.048	26.76	37.90	-0.14	7.53
59.077	26.81	37.96	-0.14	7.53
59.107	26.81	37.96	-0.02	7.65
59.137	26.81	37.96	-0.02	7.65
59.167	26.83	37.97	-0.02	7.65
59.196	26.83	37.97	-0.08	7.59
59.226	26.83	37.97	-0.08	7.59
59.256	26.84	37.98	-0.08	7.59
59.286	26.84	37.98	-0.11	7.56
59.315	26.84	37.98	-0.11	7.56
59.345	26.81	37.95	-0.11	7.56
59.375	26.81	37.95	0.01	7.68
59.405	26.81	37.95	0.01	7.68
59.435	26.73	37.88	0.01	7.68
59.464	26.73	37.88	-0.13	7.53
59.494	26.73	37.88	-0.13	7.53
59.524	26.69	37.83	-0.13	7.53
59.554	26.69	37.83	-0.02	7.64
59.583	26.69	37.83	-0.02	7.64
59.613	26.70	37.84	-0.02	7.64
59.643	26.70	37.84	-0.08	7.59
59.673	26.70	37.84	-0.08	7.59
59.702	26.77	37.92	-0.08	7.59
59.732	26.77	37.92	-0.11	7.56
59.762	26.77	37.92	-0.11	7.56
59.792	26.73	37.88	-0.11	7.56
59.821	26.73	37.88	0.01	7.68
59.851	26.73	37.88	0.01	7.68
59.881	26.70	37.84	0.01	7.68
59.911	26.70	37.84	-0.14	7.53
59.940	26.70	37.84	-0.14	7.53
59.970	26.74	37.89	-0.14	7.53
60.000	26.74	37.89	-0.03	7.64
60.030	26.74	37.89	-0.03	7.64
60.059	26.80	37.94	-0.03	7.64
60.089	26.80	37.94	-0.08	7.59
60.119	26.80	37.94	-0.08	7.59
60.149	26.82	37.96	-0.08	7.59
60.178	26.82	37.96	-0.12	7.55
60.208	26.82	37.96	-0.12	7.55
60.238	26.77	37.92	-0.12	7.55
60.268	26.77	37.92	0.01	7.68
60.298	26.77	37.92	0.01	7.68
60.327	26.70	37.85	0.01	7.68
60.357	26.70	37.85	-0.14	7.53
60.387	26.70	37.85	-0.14	7.53
60.417	26.74	37.88	-0.14	7.53
60.446	26.74	37.88	-0.03	7.64
60.476	26.74	37.88	-0.03	7.64
60.506	26.67	37.82	-0.03	7.64
60.536	26.67	37.82	-0.07	7.59
60.565	26.67	37.82	-0.07	7.59
60.595	26.74	37.88	-0.07	7.59
60.625	26.74	37.88	-0.12	7.55
60.655	26.74	37.88	-0.12	7.55
60.684	26.74	37.88	-0.12	7.55
60.714	26.74	37.88	0.01	7.68
60.744	26.74	37.88	0.01	7.68
60.774	26.76	37.90	0.01	7.68
60.803	26.76	37.90	-0.13	7.53
60.833	26.76	37.90	-0.13	7.53
60.863	26.74	37.89	-0.13	7.53
60.893	26.74	37.89	-0.03	7.64
60.922	26.74	37.89	-0.03	7.64
60.952	26.77	37.92	-0.03	7.64
60.982	26.77	37.92	-0.07	7.59
61.012	26.77	37.92	-0.07	7.59
61.041	26.91	38.06	-0.07	7.59
61.071	26.91	38.06	-0.12	7.54
61.101	26.91	38.06	-0.12	7.54
61.131	26.77	37.91	-0.12	7.54
61.161	26.77	37.91	0.01	7.68
61.190	26.77	37.91	0.01	7.68
61.220	26.79	37.93	0.01	7.68
61.250	26.79	37.93	-0.14	7.53
61.280	26.79	37.93	-0.14	7.53
61.309	26.78	37.92	-0.14	7.53
61.339	26.78	37.92	-0.03	7.64
61.369	26.78	37.92	-0.03	7.64
61.399	26.71	37.85	-0.03	7.64
61.428	26.71	37.85	-0.07	7.60
61.458	26.71	37.85	-0.07	7.60
61.488	26.74	37.88	-0.07	7.60
61.518	26.74	37.88	-0.13	7.54
61.547	26.74	37.88	-0.13	7.54
61.577	26.75	37.90	-0.13	7.54
61.607	26.75	37.90	0.01	7.68
61.637	26.75	37.90	0.01	7.68
61.666	26.74	37.89	0.01	7.68
61.696	26.74	37.89	-0.13	7.54
61.726	26.74	37.89	-0.13	7.54
61.756	26.80	37.94	-0.13	7.54
61.785	26.80	37.94	-0.03	7.64
61.815	26.80	37.94	-0.03	7.64
61.845	26.78	37.93	-0.03	7.64
61.875	26.78	37.93	-0.07	7.60
61.905	26.78	37.93	-0.07	7.60
61.934	26.88	38.03	-0.07	7.60
61.964	26.88	38.03	-0.13	7.54
61.994	26.88	38.03	-0.13	7.54
62.024	26.79	37.94	-0.13	7.54
62.053	26.79	37.94	0.02	7.69
62.083	26.79	37.94	0.02	7.69
62.113	26.75	37.90	0.02	7.69
62.143	26.75	37.90	-0.13	7.54
62.172	26.75	37.90	-0.13	7.54
62.202	26.79	37.93	-0.13	7.54
62.232	26.79	37.93	-0.03	7.64
62.262	26.79	37.93	-0.03	7.64
62.291	26.79	37.93	-0.03	7.64
62.321	26.79	37.93	-0.06	7.60
62.351	26.79	37.93	-0.06	7.60
62.381	26.83	37.97	-0.06	7.60
62.410	26.83	37.97	-0.13	7.53
62.440	26.83	37.97	-0.13	7.53
62.470	26.75	37.90	-0.13	7.53
62.500	26.75	37.90	0.02	7.68
62.530	26.75	37.90	0.02	7.68
62.559	26.73	37.87	0.02	7.68
62.589	26.73	37.87	-0.12	7.54
62.619	26.73	37.87	-0.12	7.54
62.649	26.73	37.87	-0.12	7.54
62.678	26.73	37.87	-0.03	7.63
62.708	26.73	37.87	-0.03	7.63
62.738	26.73	37.87	-0.03	7.63
62.768	26.73	37.87	-0.06	7.61
62.797	26.73	37.87	-0.06	7.61
62.827	26.87	38.01	-0.06	7.61
62.857	26.87	38.01	-0.14	7.53
62.887	26.87	38.01	-0.14	7.53
62.916	26.85	37.99	-0.14	7.53
62.946	26.85	37.99	0.02	7.68
62.976	26.85	37.99	0.02	7.68
63.006	26.76	37.91	0.02	7.68
63.035	26.76	37.91	-0.12	7.54
63.065	26.76	37.91	-0.12	7.54
63.095	26.77	37.91	-0.12	7.54
63.125	26.77	37.91	-0.04	7.63
63.155	26.77	37.91	-0.04	7.63
63.184	26.77	37.92	-0.04	7.63
63.214	26.77	37.92	-0.06	7.61
63.244	26.77	37.92	-0.06	7.61
63.274	26.71	37.86	-0.06	7.61
63.303	26.71	37.86	-0.14	7.53
63.333	26.71	37.86	-0.14	7.53
63.363	26.76	37.91	-0.14	7.53
63.393	26.76	37.91	0.01	7.68
63.422	26.76	37.91	0.01	7.68
63.452	26.84	37.98	0.01	7.68
63.482	26.84	37.98	-0.12	7.54
63.512	26.84	37.98	-0.12	7.54
63.541	26.82	37.96	-0.12	7.54
63.571	26.82	37.96	-0.03	7.63
63.601	26.82	37.96	-0.03	7.63
63.631	26.73	37.88	-0.03	7.63
63.660	26.73	37.88	-0.05	7.61
63.690	26.73	37.88	-0.05	7.61
63.720	26.78	37.93	-0.05	7.61
63.750	26.78	37.93	-0.14	7.53
63.779	26.78	37.93	-0.14	7.53
63.809	26.89	38.03	-0.14	7.53
63.839	26.89	38.03	0.01	7.68
63.869	26.89	38.03	0.01	7.68
63.899	26.79	37.93	0.01	7.68
63.928	26.79	37.93	-0.13	7.54
63.958	26.79	37.93	-0.13	7.54
63.988	26.79	37.93	-0.13	7.54
64.018	26.79	37.93	-0.03	7.64
64.047	26.79	37.93	-0.03	7.64
64.077	26.80	37.94	-0.03	7.64
64.107	26.80	37.94	-0.05	7.62
64.137	26.80	37.94	-0.05	7.62
64.166	26.78	37.92	-0.05	7.62
64.196	26.78	37.92	-0.14	7.53
64.226	26.78	37.92	-0.14	7.53
64.256	26.87	38.01	-0.14	7.53
64.285	26.87	38.01	0.01	7.68
64.315	26.87	38.01	0.01	7.68
64.345	26.79	37.93	0.01	7.68
64.375	26.79	37.93	-0.12	7.54
64.404	26.79	37.93	-0.12	7.54
64.434	26.80	37.94	-0.12	7.54
64.464	26.80	37.94	-0.03	7.63
64.494	26.80	37.94	-0.03	7.63
64.523	26.76	37.90	-0.03	7.63
64.553	26.76	37.90	-0.05	7.62
64.583	26.76	37.90	-0.05	7.62
64.613	26.77	37.92	-0.05	7.62
64.642	26.77	37.92	-0.14	7.53
64.672	26.77	37.92	-0.14	7.53
64.702	26.75	37.90	-0.14	7.53
64.732	26.75	37.90	0.01	7.68
64.762	26.75	37.90	0.01	7.68
64.791	26.67	37.81	0.01	7.68
64.821	26.67	37.81	-0.12	7.55
64.851	26.67	37.81	-0.12	7.55
64.881	26.73	37.87	-0.12	7.55
64.910	26.73	37.87	-0.04	7.63
64.940	26.73	37.87	-0.04	7.63
64.970	26.77	37.92	-0.04	7.63
65.000	26.77	37.92	-0.05	7.62
65.029	26.77	37.92	-0.05	7.62
65.059	26.78	37.92	-0.05	7.62
65.089	26.78	37.92	-0.14	7.53
65.119	26.78	37.92	-0.14	7.53
65.148	26.81	37.96	-0.14	7.53
65.178	26.81	37.96	0.01	7.68
65.208	26.81	37.96	0.01	7.68
65.238	26.80	37.94	0.01	7.68
65.267	26.80	37.94	-0.12	7.55
65.297	26.80	37.94	-0.12	7.55
65.327	26.79	37.94	-0.12	7.55
65.357	26.79	37.94	-0.04	7.63
65.386	26.79	37.94	-0.04	7.63
65.416	26.73	37.87	-0.04	7.63
65.446	26.73	37.87	-0.05	7.62
65.476	26.73	37.87	-0.05	7.62
65.506	26.76	37.90	-0.05	7.62
65.535	26.76	37.90	-0.14	7.53
65.565	26.76	37.90	-0.14	7.53
65.595	26.85	37.99	-0.14	7.53
65.625	26.85	37.99	0.01	7.68
65.654	26.85	37.99	0.01	7.68
65.684	26.79	37.93	0.01	7.68
65.714	26.79	37.93	-0.12	7.55
65.744	26.79	37.93	-0.12	7.55
65.773	26.78	37.92	-0.12	7.55
65.803	26.78	37.92	-0.04	7.63
65.833	26.78	37.92	-0.04	7.63
65.863	26.81	37.96	-0.04	7.63
65.892	26.81	37.96	-0.05	7.62
65.922	26.81	37.96	-0.05	7.62
65.952	26.71	37.86	-0.05	7.62
65.982	26.71	37.86	-0.14	7.53
66.011	26.71	37.86	-0.14	7.53
66.041	26.81	37.95	-0.14	7.53
66.071	26.81	37.95	0.01	7.68
66.101	26.81	37.95	0.01	7.68
66.130	26.79	37.93	0.01	7.68
66.160	26.79	37.93	-0.12	7.54
66.190	26.79	37.93	-0.12	7.54
66.220	26.80	37.94	-0.12	7.54
66.250	26.80	37.94	-0.03	7.63
66.279	26.80	37.94	-0.03	7.63
66.309	26.87	38.02	-0.03	7.63
66.339	26.87	38.02	-0.05	7.62
66.369	26.87	38.02	-0.05	7.62
66.398	26.82	37.97	-0.05	7.62
66.428	26.82	37.97	-0.14	7.53
66.458	26.82	37.97	-0.14	7.53
66.488	26.82	37.96	-0.14	7.53
66.517	26.82	37.96	0.01	7.68
66.547	26.82	37.96	0.01	7.68
66.577	26.79	37.93	0.01	7.68
66.607	26.79	37.93	-0.12	7.55
66.636	26.79	37.93	-0.12	7.55
66.666	26.80	37.94	-0.12	7.55
66.696	26.80	37.94	-0.04	7.63
66.726	26.80	37.94	-0.04	7.63
66.755	26.86	38.01	-0.04	7.63
66.785	26.86	38.01	-0.05	7.62
66.815	26.86	38.01	-0.05	7.62
66.845	26.77	37.91	-0.05	7.62
66.874	26.77	37.91	-0.14	7.53
66.904	26.77	37.91	-0.14	7.53
66.934	26.86	38.01	-0.14	7.53
66.964	26.86	38.01	0.01	7.68
66.993	26.86	38.01	0.01	7.68
67.023	26.86	38.00	0.01	7.68
67.053	26.86	38.00	-0.12	7.55
67.083	26.86	38.00	-0.12	7.55
67.113	26.78	37.92	-0.12	7.55
67.142	26.78	37.92	-0.04	7.63
67.172	26.78	37.92	-0.04	7.63
67.202	26.81	37.95	-0.04	7.63
67.232	26.81	37.95	-0.05	7.62
67.261	26.81	37.95	-0.05	7.62
67.291	26.82	37.97	-0.05	7.62
67.321	26.82	37.97	-0.14	7.53
67.351	26.82	37.97	-0.14	7.53
67.380	26.91	38.05	-0.14	7.53
67.410	26.91	38.05	0.01	7.68
67.440	26.91	38.05	0.01	7.68
67.470	26.83	37.97	0.01	7.68
67.499	26.83	37.97	-0.12	7.55
67.529	26.83	37.97	-0.12	7.55
67.559	26.84	37.98	-0.12	7.55
67.589	26.84	37.98	-0.03	7.64
67.618	26.84	37.98	-0.03	7.64
67.648	26.86	38.00	-0.03	7.64
67.678	26.86	38.00	-0.05	7.62
67.708	26.86	38.00	-0.05	7.62
67.738	26.84	37.99	-0.05	7.62
67.767	26.84	37.99	-0.14	7.53
67.797	26.84	37.99	-0.14	7.53
67.827	26.91	38.05	-0.14	7.53
67.857	26.91	38.05	0.01	7.68
67.886	26.91	38.05	0.01	7.68
67.916	26.88	38.02	0.01	7.68
67.946	26.88	38.02	-0.12	7.55
67.976	26.88	38.02	-0.12	7.55
68.005	26.85	37.99	-0.12	7.55
68.035	26.85	37.99	-0.04	7.63
68.065	26.85	37.99	-0.04	7.63
68.095	26.85	37.99	-0.04	7.63
68.124	26.85	37.99	-0.05	7.62
68.154	26.85	37.99	-0.05	7.62
68.184	26.89	38.04	-0.05	7.62
68.214	26.89	38.04	-0.14	7.53
68.244	26.89	38.04	-0.14	7.53
68.273	26.91	38.06	-0.14	7.53
68.303	26.91	38.06	0.01	7.68
68.333	26.91	38.06	0.01	7.68
68.363	26.82	37.97	0.01	7.68
68.392	26.82	37.97	-0.12	7.54
68.422	26.82	37.97	-0.12	7.54
68.452	26.81	37.95	-0.12	7.54
68.482	26.81	37.95	-0.03	7.63
68.511	26.81	37.95	-0.03	7.63
68.541	26.94	38.08	-0.03	7.63
68.571	26.94	38.08	-0.05	7.62
68.601	26.94	38.08	-0.05	7.62
68.630	26.91	38.05	-0.05	7.62
68.660	26.91	38.05	-0.14	7.53
68.690	26.91	38.05	-0.14	7.53
68.720	26.90	38.04	-0.14	7.53
68.749	26.90	38.04	0.01	7.68
68.779	26.90	38.04	0.01	7.68
68.809	26.94	38.08	0.01	7.68
68.839	26.94	38.08	-0.12	7.54
68.868	26.94	38.08	-0.12	7.54
68.898	26.95	38.09	-0.12	7.54
68.928	26.95	38.09	-0.04	7.63
68.958	26.95	38.09	-0.04	7.63
68.987	26.88	38.02	-0.04	7.63
69.017	26.88	38.02	-0.05	7.62
69.047	26.88	38.02	-0.05	7.62
69.077	26.84	37.98	-0.05	7.62
69.107	26.84	37.98	-0.14	7.53
69.136	26.84	37.98	-0.14	7.53
69.166	26.90	38.05	-0.14	7.53
69.196	26.90	38.05	0.01	7.68
69.226	26.90	38.05	0.01	7.68
69.255	26.88	38.03	0.01	7.68
69.285	26.88	38.03	-0.12	7.54
69.315	26.88	38.03	-0.12	7.54
69.345	26.85	38.00	-0.12	7.54
69.374	26.85	38.00	-0.03	7.63
69.404	26.85	38.00	-0.03	7.63
69.434	26.81	37.95	-0.03	7.63
69.464	26.81	37.95	-0.05	7.62
69.493	26.81	37.95	-0.05	7.62
69.523	26.85	37.99	-0.05	7.62
69.553	26.85	37.99	-0.14	7.53
69.583	26.85	37.99	-0.14	7.53
69.612	26.82	37.97	-0.14	7.53
69.642	26.82	37.97	0.01	7.68
69.672	26.82	37.97	0.01	7.68
69.702	26.84	37.98	0.01	7.68
69.731	26.84	37.98	-0.12	7.55
69.761	26.84	37.98	-0.12	7.55
69.791	26.82	37.96	-0.12	7.55
69.821	26.82	37.96	-0.03	7.64
69.850	26.82	37.96	-0.03	7.64
69.880	26.90	38.04	-0.03	7.64
69.910	26.90	38.04	-0.05	7.62
69.940	26.90	38.04	-0.05	7.62
69.969	26.89	38.03	-0.05	7.62
69.999	26.89	38.03	-0.13	7.53
70.029	26.89	38.03	-0.13	7.53
70.059	26.90	38.04	-0.13	7.53
70.089	26.90	38.04	0.01	7.68
70.118	26.90	38.04	0.01	7.68
70.148	26.89	38.03	0.01	7.68
70.178	26.89	38.03	-0.12	7.55
70.208	26.89	38.03	-0.12	7.55
70.237	26.81	37.95	-0.12	7.55
70.267	26.81	37.95	-0.03	7.64
70.297	26.81	37.95	-0.03	7.64
70.327	26.89	38.04	-0.03	7.64
70.356	26.89	38.04	-0.05	7.62
70.386	26.89	38.04	-0.05	7.62
70.416	26.90	38.04	-0.05	7.62
70.446	26.90	38.04	-0.14	7.53
70.475	26.90	38.04	-0.14	7.53
70.505	26.91	38.06	-0.14	7.53
70.535	26.91	38.06	0.01	7.68
70.565	26.91	38.06	0.01	7.68
70.594	26.89	38.03	0.01	7.68
70.624	26.89	38.03	-0.12	7.54
70.654	26.89	38.03	-0.12	7.54
70.684	26.90	38.04	-0.12	7.54
70.713	26.90	38.04	-0.03	7.63
70.743	26.90	38.04	-0.03	7.63
70.773	15.13	26.28	-0.03	7.63
70.803	15.13	26.28	-0.06	7.61
70.833	15.13	26.28	-0.06	7.61
70.862	-10.69	0.45	-0.06	7.61
70.892	-10.69	0.45	-0.17	7.50
70.922	-10.69	0.45	-0.17	7.50
70.952	-8.82	2.32	-0.17	7.50
70.981	-8.82	2.32	0.01	7.68
71.011	-8.82	2.32	0.01	7.68
71.041	5.84	16.98	0.01	7.68
71.071	5.84	16.98	-0.12	7.54
71.100	5.84	16.98	-0.12	7.54
71.130	4.35	15.49	-0.12	7.54
71.160	4.35	15.49	-0.04	7.63
71.190	4.35	15.49	-0.04	7.63
71.220	-1.23	9.92	-0.04	7.63
71.249	-1.23	9.92	-0.06	7.61
71.279	-1.23	9.92	-0.06	7.61
71.309	-2.66	8.49	-0.06	7.61
71.339	-2.66	8.49	-0.14	7.52
71.368	-2.66	8.49	-0.14	7.52
71.398	0.24	11.39	-0.14	7.52
71.428	0.24	11.39	0.01	7.68
71.458	0.24	11.39	0.01	7.68
71.487	2.52	13.66	0.01	7.68
71.517	2.52	13.66	-0.12	7.54
71.547	2.52	13.66	-0.12	7.54
71.577	0.29	11.44	-0.12	7.54
71.607	0.29	11.44	-0.04	7.63
71.636	0.29	11.44	-0.04	7.63
71.666	-1.17	9.97	-0.04	7.63
71.696	-1.17	9.97	-0.05	7.61
71.726	-1.17	9.97	-0.05	7.61
71.755	0.08	11.22	-0.05	7.61
71.785	0.08	11.22	-0.14	7.53
71.815	0.08	11.22	-0.14	7.53
71.845	0.94	12.09	-0.14	7.53
71.875	0.94	12.09	0.01	7.68
71.904	0.94	12.09	0.01	7.68
71.934	0.40	11.54	0.01	7.68
71.964	0.40	11.54	-0.13	7.54
71.994	0.40	11.54	-0.13	7.54
72.023	-0.21	10.94	-0.13	7.54
72.053	-0.21	10.94	-0.04	7.63
72.083	-0.21	10.94	-0.04	7.63
72.113	-0.05	11.09	-0.04	7.63
72.142	-0.05	11.09	-0.06	7.61
72.172	-0.05	11.09	-0.06	7.61
72.202	0.40	11.54	-0.06	7.61
72.232	0.40	11.54	-0.14	7.53
72.262	0.40	11.54	-0.14	7.53
72.291	0.33	11.47	-0.14	7.53
72.321	0.33	11.47	0.01	7.68
72.351	0.33	11.47	0.01	7.68
72.381	0.01	11.15	0.01	7.68
72.410	0.01	11.15	-0.12	7.54
72.440	0.01	11.15	-0.12	7.54
72.470	0.04	11.18	-0.12	7.54
72.500	0.04	11.18	-0.04	7.63
72.529	0.04	11.18	-0.04	7.63
72.559	0.23	11.37	-0.04	7.63
72.589	0.23	11.37	-0.05	7.62
72.619	0.23	11.37	-0.05	7.62
72.649	0.21	11.35	-0.05	7.62
72.678	0.21	11.35	-0.14	7.53
72.708	0.21	11.35	-0.14	7.53
72.738	0.10	11.24	-0.14	7.53
72.768	0.10	11.24	0.01	7.68
72.797	0.10	11.24	0.01	7.68
72.827	0.12	11.26	0.01	7.68
72.857	0.12	11.26	-0.12	7.54
72.887	0.12	11.26	-0.12	7.54
72.917	0.16	11.30	-0.12	7.54
72.946	0.16	11.30	-0.04	7.63
72.976	0.16	11.30	-0.04	7.63
73.006	0.15	11.29	-0.04	7.63
73.036	0.15	11.29	-0.05	7.62
73.065	0.15	11.29	-0.05	7.62
73.095	0.11	11.25	-0.05	7.62
73.125	0.11	11.25	-0.14	7.53
73.155	0.11	11.25	-0.14	7.53
73.184	0.10	11.24	-0.14	7.53
73.214	0.10	11.24	0.01	7.68
73.244	0.10	11.24	0.01	7.68
73.274	0.12	11.26	0.01	7.68
73.304	0.12	11.26	-0.12	7.54
73.333	0.12	11.26	-0.12	7.54
73.363	0.11	11.25	-0.12	7.54
73.393	0.11	11.25	-0.04	7.63
73.423	0.11	11.25	-0.04	7.63
73.452	0.09	11.24	-0.04	7.63
73.482	0.09	11.24	-0.05	7.61
73.512	0.09	11.24	-0.05	7.61
73.542	0.09	11.23	-0.05	7.61
73.571	0.09	11.23	-0.14	7.52
73.601	0.09	11.23	-0.14	7.52
73.631	0.09	11.24	-0.14	7.52
73.661	0.09	11.24	0.01	7.67
73.691	0.09	11.24	0.01	7.67
73.720	0.09	11.24	0.01	7.67
73.750	0.09	11.24	-0.12	7.55
73.780	0.09	11.24	-0.12	7.55
73.810	0.09	11.23	-0.12	7.55
73.839	0.09	11.23	-0.04	7.63
73.869	0.09	11.23	-0.04	7.63
73.899	0.08	11.23	-0.04	7.63
73.929	0.08	11.23	-0.05	7.62
73.958	0.08	11.23	-0.05	7.62
73.988	0.08	11.22	-0.05	7.62
74.018	0.08	11.22	-0.14	7.53
74.048	0.08	11.22	-0.14	7.53
74.078	0.08	11.22	-0.14	7.53
74.107	0.08	11.22	0.01	7.68
74.137	0.08	11.22	0.01	7.68
74.167	0.08	11.22	0.01	7.68
74.197	0.08	11.22	-0.12	7.55
74.226	0.08	11.22	-0.12	7.55
74.256	0.09	11.23	-0.12	7.55
74.286	0.09	11.23	-0.04	7.63
74.316	0.09	11.23	-0.04	7.63
74.346	0.11	11.26	-0.04	7.63
74.375	0.11	11.26	-0.05	7.62
74.405	0.11	11.26	-0.05	7.62
74.435	0.13	11.27	-0.05	7.62
74.465	0.13	11.27	-0.15	7.52
74.494	0.13	11.27	-0.15	7.52
74.524	0.13	11.28	-0.15	7.52
74.554	0.13	11.28	0.01	7.68
74.584	0.13	11.28	0.01	7.68
74.613	0.14	11.28	0.01	7.68
74.643	0.14	11.28	-0.12	7.54
74.673	0.14	11.28	-0.12	7.54
74.703	0.14	11.29	-0.12	7.54
74.733	0.14	11.29	-0.04	7.63
74.762	0.14	11.29	-0.04	7.63
74.792	0.15	11.29	-0.04	7.63
74.822	0.15	11.29	-0.05	7.62
74.852	0.15	11.29	-0.05	7.62
74.881	0.15	11.30	-0.05	7.62
74.911	0.15	11.30	-0.14	7.52
74.941	0.15	11.30	-0.14	7.52
74.971	0.15	11.30	-0.14	7.52
75.000	0.15	11.30	0.01	7.68
75.030	0.15	11.30	0.01	7.68
75.060	0.15	11.30	0.01	7.68
75.090	0.15	11.30	-0.12	7.54
75.120	0.15	11.30	-0.12	7.54
75.149	0.14	11.29	-0.12	7.54
75.179	0.14	11.29	-0.04	7.63
75.209	0.14	11.29	-0.04	7.63
75.239	0.14	11.28	-0.04	7.63
75.268	0.14	11.28	-0.04	7.62
75.298	0.14	11.28	-0.04	7.62
75.328	0.12	11.27	-0.04	7.62
75.358	0.12	11.27	-0.15	7.52
75.387	0.12	11.27	-0.15	7.52
75.417	0.12	11.26	-0.15	7.52
75.447	0.12	11.26	0.01	7.68
