Tempo(s)    P0(KPa) P0+Coluna(KPa)  P1(KPa) P1+Coluna(KPa)
0.003	-2.22	-2.22	-2.22	-2.22
0.030	-2.22	-2.22	-2.22	-2.22
0.060	7.62	7.62	-2.22	-2.22
0.090	7.62	7.62	7.71	7.71
0.120	7.62	7.62	7.71	7.71
0.149	7.42	7.42	7.71	7.71
0.179	7.42	7.42	7.56	7.56
0.209	7.42	7.42	7.56	7.56
0.239	7.62	7.62	7.56	7.56
0.269	7.62	7.62	7.70	7.70
0.298	7.62	7.62	7.70	7.70
0.328	7.48	7.48	7.70	7.70
0.358	7.48	7.48	7.59	7.59
0.388	7.48	7.48	7.59	7.59
0.418	7.51	7.51	7.59	7.59
0.447	7.51	7.51	7.66	7.66
0.477	7.51	7.51	7.66	7.66
0.507	7.59	7.59	7.66	7.66
0.537	7.59	7.59	7.65	7.65
0.566	7.59	7.59	7.65	7.65
0.596	7.41	7.41	7.65	7.65
0.626	0.00	7.41	-0.09	7.56
0.656	0.00	7.41	-0.09	7.56
0.685	0.20	7.61	-0.09	7.56
0.715	0.20	7.61	0.05	7.70
0.745	0.20	7.61	0.05	7.70
0.775	0.06	7.47	0.05	7.70
0.804	0.06	7.47	-0.07	7.58
0.834	0.06	7.47	-0.07	7.58
0.864	0.09	7.50	-0.07	7.58
0.894	0.09	7.50	0.01	7.66
0.924	0.09	7.50	0.01	7.66
0.953	0.17	7.58	0.01	7.66
0.983	0.17	7.58	0.00	7.65
1.013	0.17	7.58	0.00	7.65
1.043	0.00	7.41	0.00	7.65
1.072	0.00	7.41	-0.09	7.56
1.102	0.00	7.41	-0.09	7.56
1.132	0.20	7.62	-0.09	7.56
1.162	0.20	7.62	0.05	7.70
1.191	0.20	7.62	0.05	7.70
1.221	0.06	7.47	0.05	7.70
1.251	0.06	7.47	-0.07	7.58
1.281	0.06	7.47	-0.07	7.58
1.311	0.08	7.49	-0.07	7.58
1.340	0.08	7.49	0.01	7.66
1.370	0.08	7.49	0.01	7.66
1.400	0.17	7.58	0.01	7.66
1.430	0.17	7.58	0.00	7.65
1.460	0.17	7.58	0.00	7.65
1.489	0.01	7.42	0.00	7.65
1.519	0.01	7.42	-0.09	7.56
1.549	0.01	7.42	-0.09	7.56
1.579	0.20	7.61	-0.09	7.56
1.609	0.20	7.61	0.05	7.70
1.638	0.20	7.61	0.05	7.70
1.668	0.06	7.47	0.05	7.70
1.698	0.06	7.47	-0.07	7.58
1.728	0.06	7.47	-0.07	7.58
1.757	0.09	7.50	-0.07	7.58
1.787	0.09	7.50	0.01	7.66
1.817	0.09	7.50	0.01	7.66
1.847	0.16	7.57	0.01	7.66
1.877	0.16	7.57	0.00	7.65
1.906	0.16	7.57	0.00	7.65
1.936	0.00	7.41	0.00	7.65
1.966	0.00	7.41	-0.09	7.56
1.996	0.00	7.41	-0.09	7.56
2.025	0.20	7.61	-0.09	7.56
2.055	0.20	7.61	0.06	7.71
2.085	0.20	7.61	0.06	7.71
2.115	0.05	7.46	0.06	7.71
2.145	0.05	7.46	-0.07	7.58
2.174	0.05	7.46	-0.07	7.58
2.204	0.09	7.50	-0.07	7.58
2.234	0.09	7.50	0.01	7.66
2.264	0.09	7.50	0.01	7.66
2.293	0.15	7.57	0.01	7.66
2.323	0.15	7.57	0.01	7.66
2.353	0.15	7.57	0.01	7.66
2.383	-0.00	7.41	0.01	7.66
2.413	-0.00	7.41	-0.09	7.56
2.442	-0.00	7.41	-0.09	7.56
2.472	0.19	7.60	-0.09	7.56
2.502	0.19	7.60	0.06	7.71
2.532	0.19	7.60	0.06	7.71
2.562	0.05	7.47	0.06	7.71
2.591	0.05	7.47	-0.07	7.58
2.621	0.05	7.47	-0.07	7.58
2.651	0.08	7.49	-0.07	7.58
2.681	0.08	7.49	0.01	7.66
2.710	0.08	7.49	0.01	7.66
2.740	0.15	7.56	0.01	7.66
2.770	0.15	7.56	0.00	7.65
2.800	0.15	7.56	0.00	7.65
2.830	-0.01	7.40	0.00	7.65
2.859	-0.01	7.40	-0.09	7.56
2.889	-0.01	7.40	-0.09	7.56
2.919	0.19	7.60	-0.09	7.56
2.949	0.19	7.60	0.05	7.70
2.978	0.19	7.60	0.05	7.70
3.008	0.05	7.46	0.05	7.70
3.038	0.05	7.46	-0.07	7.58
3.068	0.05	7.46	-0.07	7.58
3.097	0.07	7.48	-0.07	7.58
3.127	0.07	7.48	0.01	7.66
3.157	0.07	7.48	0.01	7.66
3.187	0.15	7.56	0.01	7.66
3.217	0.15	7.56	0.00	7.65
3.246	0.15	7.56	0.00	7.65
3.276	-0.02	7.39	0.00	7.65
3.306	-0.02	7.39	-0.09	7.56
3.336	-0.02	7.39	-0.09	7.56
3.366	0.19	7.60	-0.09	7.56
3.395	0.19	7.60	0.05	7.70
3.425	0.19	7.60	0.05	7.70
3.455	0.05	7.46	0.05	7.70
3.485	0.05	7.46	-0.07	7.58
3.514	0.05	7.46	-0.07	7.58
3.544	0.34	7.75	-0.07	7.58
3.574	0.34	7.75	0.01	7.66
3.604	0.34	7.75	0.01	7.66
3.634	7.19	14.60	0.01	7.66
3.663	7.19	14.60	0.01	7.66
3.693	7.19	14.60	0.01	7.66
3.723	12.30	19.71	0.01	7.66
3.753	12.30	19.71	-0.09	7.56
3.782	12.30	19.71	-0.09	7.56
3.812	10.33	17.74	-0.09	7.56
3.842	10.33	17.74	0.05	7.70
3.872	10.33	17.74	0.05	7.70
3.902	9.62	17.03	0.05	7.70
3.931	9.62	17.03	-0.07	7.58
3.961	9.62	17.03	-0.07	7.58
3.991	9.63	17.04	-0.07	7.58
4.021	9.63	17.04	0.01	7.66
4.050	9.63	17.04	0.01	7.66
4.080	9.69	17.10	0.01	7.66
4.110	9.69	17.10	0.01	7.66
4.140	9.69	17.10	0.01	7.66
4.170	9.66	17.07	0.01	7.66
4.199	9.66	17.07	-0.09	7.56
4.229	9.66	17.07	-0.09	7.56
4.259	9.84	17.25	-0.09	7.56
4.289	9.84	17.25	0.06	7.71
4.318	9.84	17.25	0.06	7.71
4.348	9.86	17.27	0.06	7.71
4.378	9.86	17.27	-0.06	7.59
4.408	9.86	17.27	-0.06	7.59
4.438	9.73	17.14	-0.06	7.59
4.467	9.73	17.14	0.01	7.66
4.497	9.73	17.14	0.01	7.66
4.527	9.83	17.24	0.01	7.66
4.557	9.83	17.24	0.01	7.66
4.586	9.83	17.24	0.01	7.66
4.616	10.28	17.69	0.01	7.66
4.646	10.28	17.69	-0.09	7.56
4.676	10.28	17.69	-0.09	7.56
4.706	10.16	17.58	-0.09	7.56
4.735	10.16	17.58	0.06	7.71
4.765	10.16	17.58	0.06	7.71
4.795	10.64	18.05	0.06	7.71
4.825	10.64	18.05	-0.06	7.59
4.854	10.64	18.05	-0.06	7.59
4.884	10.44	17.85	-0.06	7.59
4.914	10.44	17.85	0.01	7.66
4.944	10.44	17.85	0.01	7.66
4.973	10.48	17.89	0.01	7.66
5.003	10.48	17.89	0.01	7.66
5.033	10.48	17.89	0.01	7.66
5.063	10.39	17.80	0.01	7.66
5.093	10.39	17.80	-0.09	7.56
5.122	10.39	17.80	-0.09	7.56
5.152	10.24	17.65	-0.09	7.56
5.182	10.24	17.65	0.06	7.71
5.212	10.24	17.65	0.06	7.71
5.241	10.38	17.79	0.06	7.71
5.271	10.38	17.79	-0.06	7.59
5.301	10.38	17.79	-0.06	7.59
5.331	10.32	17.73	-0.06	7.59
5.361	10.32	17.73	0.01	7.66
5.390	10.32	17.73	0.01	7.66
5.420	10.39	17.80	0.01	7.66
5.450	10.39	17.80	0.00	7.65
5.480	10.39	17.80	0.00	7.65
5.509	10.37	17.78	0.00	7.65
5.539	10.37	17.78	-0.09	7.56
5.569	10.37	17.78	-0.09	7.56
5.599	10.33	17.74	-0.09	7.56
5.628	10.33	17.74	0.06	7.71
5.658	10.33	17.74	0.06	7.71
5.688	10.43	17.84	0.06	7.71
5.718	10.43	17.84	-0.07	7.58
5.748	10.43	17.84	-0.07	7.58
5.777	10.03	17.44	-0.07	7.58
5.807	10.03	17.44	0.01	7.66
5.837	10.03	17.44	0.01	7.66
5.867	9.89	17.30	0.01	7.66
5.896	9.89	17.30	0.00	7.65
5.926	9.89	17.30	0.00	7.65
5.956	9.69	17.10	0.00	7.65
5.986	9.69	17.10	-0.09	7.56
6.016	9.69	17.10	-0.09	7.56
6.045	9.79	17.20	-0.09	7.56
6.075	9.79	17.20	0.06	7.71
6.105	9.79	17.20	0.06	7.71
6.135	9.76	17.17	0.06	7.71
6.164	9.76	17.17	-0.07	7.58
6.194	9.76	17.17	-0.07	7.58
6.224	9.84	17.25	-0.07	7.58
6.254	9.84	17.25	0.01	7.66
6.284	9.84	17.25	0.01	7.66
6.313	9.67	17.08	0.01	7.66
6.343	9.67	17.08	0.00	7.65
6.373	9.67	17.08	0.00	7.65
6.403	9.85	17.27	0.00	7.65
6.432	9.85	17.27	-0.09	7.56
6.462	9.85	17.27	-0.09	7.56
6.492	9.93	17.34	-0.09	7.56
6.522	9.93	17.34	0.06	7.71
6.551	9.93	17.34	0.06	7.71
6.581	9.76	17.18	0.06	7.71
6.611	9.76	17.18	-0.06	7.59
6.641	9.76	17.18	-0.06	7.59
6.671	9.71	17.12	-0.06	7.59
6.700	9.71	17.12	0.01	7.66
6.730	9.71	17.12	0.01	7.66
6.760	9.81	17.22	0.01	7.66
6.790	9.81	17.22	0.01	7.66
6.819	9.81	17.22	0.01	7.66
6.849	9.64	17.05	0.01	7.66
6.879	9.64	17.05	-0.09	7.56
6.909	9.64	17.05	-0.09	7.56
6.939	9.97	17.38	-0.09	7.56
6.968	9.97	17.38	0.06	7.71
6.998	9.97	17.38	0.06	7.71
7.028	9.75	17.16	0.06	7.71
7.058	9.75	17.16	-0.06	7.59
7.087	9.75	17.16	-0.06	7.59
7.117	9.69	17.10	-0.06	7.59
7.147	9.69	17.10	0.01	7.66
7.177	9.69	17.10	0.01	7.66
7.207	9.70	17.12	0.01	7.66
7.236	9.70	17.12	0.00	7.65
7.266	9.70	17.12	0.00	7.65
7.296	9.77	17.18	0.00	7.65
7.326	9.77	17.18	-0.09	7.56
7.355	9.77	17.18	-0.09	7.56
7.385	9.64	17.05	-0.09	7.56
7.415	9.64	17.05	0.06	7.71
7.445	9.64	17.05	0.06	7.71
7.475	9.48	16.89	0.06	7.71
7.504	9.48	16.89	-0.06	7.59
7.534	9.48	16.89	-0.06	7.59
7.564	9.60	17.01	-0.06	7.59
7.594	9.60	17.01	0.01	7.66
7.623	9.60	17.01	0.01	7.66
7.653	9.55	16.96	0.01	7.66
7.683	9.55	16.96	0.01	7.66
7.713	9.55	16.96	0.01	7.66
7.743	9.61	17.02	0.01	7.66
7.772	9.61	17.02	-0.09	7.56
7.802	9.61	17.02	-0.09	7.56
7.832	9.74	17.15	-0.09	7.56
7.862	9.74	17.15	0.06	7.71
7.891	9.74	17.15	0.06	7.71
7.921	9.63	17.04	0.06	7.71
7.951	9.63	17.04	-0.07	7.58
7.981	9.63	17.04	-0.07	7.58
8.011	9.50	16.92	-0.07	7.58
8.040	9.50	16.92	0.01	7.66
8.070	9.50	16.92	0.01	7.66
8.100	9.62	17.03	0.01	7.66
8.130	9.62	17.03	0.01	7.66
8.160	9.62	17.03	0.01	7.66
8.189	9.65	17.07	0.01	7.66
8.219	9.65	17.07	-0.09	7.56
8.249	9.65	17.07	-0.09	7.56
8.279	9.58	16.99	-0.09	7.56
8.308	9.58	16.99	0.05	7.70
8.338	9.58	16.99	0.05	7.70
8.368	9.51	16.93	0.05	7.70
8.398	9.51	16.93	-0.06	7.59
8.427	9.51	16.93	-0.06	7.59
8.457	9.62	17.03	-0.06	7.59
8.487	9.62	17.03	0.01	7.66
8.517	9.62	17.03	0.01	7.66
8.547	9.65	17.06	0.01	7.66
8.576	9.65	17.06	0.00	7.65
8.606	9.65	17.06	0.00	7.65
8.636	9.57	16.98	0.00	7.65
8.666	9.57	16.98	-0.09	7.56
8.695	9.57	16.98	-0.09	7.56
8.725	9.53	16.94	-0.09	7.56
8.755	9.53	16.94	0.05	7.70
8.785	9.53	16.94	0.05	7.70
8.815	9.58	16.99	0.05	7.70
8.844	9.58	16.99	-0.06	7.59
8.874	9.58	16.99	-0.06	7.59
8.904	9.54	16.95	-0.06	7.59
8.934	9.54	16.95	0.01	7.66
8.963	9.54	16.95	0.01	7.66
8.993	9.61	17.02	0.01	7.66
9.023	9.61	17.02	0.01	7.66
9.053	9.61	17.02	0.01	7.66
9.083	9.67	17.08	0.01	7.66
9.112	9.67	17.08	-0.09	7.56
9.142	9.67	17.08	-0.09	7.56
9.172	9.87	17.29	-0.09	7.56
9.202	9.87	17.29	0.06	7.71
9.231	9.87	17.29	0.06	7.71
9.261	9.69	17.10	0.06	7.71
9.291	9.69	17.10	-0.06	7.59
9.321	9.69	17.10	-0.06	7.59
9.351	9.80	17.22	-0.06	7.59
9.380	9.80	17.22	0.01	7.66
9.410	9.80	17.22	0.01	7.66
9.440	9.79	17.20	0.01	7.66
9.470	9.79	17.20	0.00	7.65
9.499	9.79	17.20	0.00	7.65
9.529	9.63	17.04	0.00	7.65
9.559	9.63	17.04	-0.09	7.56
9.589	9.63	17.04	-0.09	7.56
9.619	9.91	17.32	-0.09	7.56
9.648	9.91	17.32	0.05	7.70
9.678	9.91	17.32	0.05	7.70
9.708	9.72	17.13	0.05	7.70
9.738	9.72	17.13	-0.06	7.59
9.767	9.72	17.13	-0.06	7.59
9.797	9.87	17.28	-0.06	7.59
9.827	9.87	17.28	0.01	7.66
9.857	9.87	17.28	0.01	7.66
9.887	9.88	17.29	0.01	7.66
9.916	9.88	17.29	0.01	7.67
9.946	9.88	17.29	0.01	7.67
9.976	9.99	17.40	0.01	7.67
10.006	9.99	17.40	-0.09	7.56
10.035	9.99	17.40	-0.09	7.56
10.065	10.16	17.57	-0.09	7.56
10.095	10.16	17.57	0.06	7.71
10.125	10.16	17.57	0.06	7.71
10.155	9.93	17.34	0.06	7.71
10.184	9.93	17.34	-0.06	7.59
10.214	9.93	17.34	-0.06	7.59
10.244	9.84	17.25	-0.06	7.59
10.274	9.84	17.25	0.01	7.66
10.303	9.84	17.25	0.01	7.66
10.333	9.72	17.13	0.01	7.66
10.363	9.72	17.13	0.01	7.66
10.393	9.72	17.13	0.01	7.66
10.422	9.54	16.95	0.01	7.66
10.452	9.54	16.95	-0.09	7.56
10.482	9.54	16.95	-0.09	7.56
10.512	9.94	17.35	-0.09	7.56
10.542	9.94	17.35	0.06	7.71
10.571	9.94	17.35	0.06	7.71
10.601	10.44	17.85	0.06	7.71
10.631	10.44	17.85	-0.06	7.59
10.661	10.44	17.85	-0.06	7.59
10.690	10.59	18.00	-0.06	7.59
10.720	10.59	18.00	0.01	7.66
10.750	10.59	18.00	0.01	7.66
10.780	10.61	18.02	0.01	7.66
10.809	10.61	18.02	0.01	7.66
10.839	10.61	18.02	0.01	7.66
10.869	10.41	17.82	0.01	7.66
10.899	10.41	17.82	-0.09	7.56
10.928	10.41	17.82	-0.09	7.56
10.958	10.59	18.00	-0.09	7.56
10.988	10.59	18.00	0.06	7.71
11.018	10.59	18.00	0.06	7.71
11.048	10.49	17.90	0.06	7.71
11.077	10.49	17.90	-0.06	7.59
11.107	10.49	17.90	-0.06	7.59
11.137	10.65	18.06	-0.06	7.59
11.167	10.65	18.06	0.01	7.66
11.196	10.65	18.06	0.01	7.66
11.226	10.62	18.03	0.01	7.66
11.256	10.62	18.03	0.01	7.66
11.286	10.62	18.03	0.01	7.66
11.315	10.36	17.77	0.01	7.66
11.345	10.36	17.77	-0.09	7.56
11.375	10.36	17.77	-0.09	7.56
11.405	10.65	18.07	-0.09	7.56
11.434	10.65	18.07	0.06	7.71
11.464	10.65	18.07	0.06	7.71
11.494	10.53	17.94	0.06	7.71
11.524	10.53	17.94	-0.06	7.59
11.554	10.53	17.94	-0.06	7.59
11.583	10.57	17.98	-0.06	7.59
11.613	10.57	17.98	0.01	7.66
11.643	10.57	17.98	0.01	7.66
11.673	10.15	17.56	0.01	7.66
11.702	10.15	17.56	0.01	7.66
11.732	10.15	17.56	0.01	7.66
11.762	10.07	17.48	0.01	7.66
11.792	10.07	17.48	-0.09	7.57
11.821	10.07	17.48	-0.09	7.57
11.851	10.14	17.55	-0.09	7.57
11.881	10.14	17.55	0.06	7.71
11.911	10.14	17.55	0.06	7.71
11.940	10.13	17.54	0.06	7.71
11.970	10.13	17.54	-0.06	7.59
12.000	10.13	17.54	-0.06	7.59
12.030	10.11	17.52	-0.06	7.59
12.059	10.11	17.52	0.01	7.66
12.089	10.11	17.52	0.01	7.66
12.119	10.15	17.57	0.01	7.66
12.149	10.15	17.57	0.01	7.66
12.179	10.15	17.57	0.01	7.66
12.208	10.09	17.50	0.01	7.66
12.238	10.09	17.50	-0.09	7.56
12.268	10.09	17.50	-0.09	7.56
12.298	10.18	17.59	-0.09	7.56
12.327	10.18	17.59	0.06	7.71
12.357	10.18	17.59	0.06	7.71
12.387	10.28	17.69	0.06	7.71
12.417	10.28	17.69	-0.06	7.59
12.446	10.28	17.69	-0.06	7.59
12.476	10.27	17.68	-0.06	7.59
12.506	10.27	17.68	0.01	7.66
12.536	10.27	17.68	0.01	7.66
12.565	10.35	17.76	0.01	7.66
12.595	10.35	17.76	0.01	7.66
12.625	10.35	17.76	0.01	7.66
12.655	10.23	17.64	0.01	7.66
12.685	10.23	17.64	-0.09	7.56
12.714	10.23	17.64	-0.09	7.56
12.744	10.29	17.70	-0.09	7.56
12.774	10.29	17.70	0.06	7.71
12.804	10.29	17.70	0.06	7.71
12.833	10.52	17.93	0.06	7.71
12.863	10.52	17.93	-0.06	7.59
12.893	10.52	17.93	-0.06	7.59
12.923	10.70	18.11	-0.06	7.59
12.952	10.70	18.11	0.01	7.66
12.982	10.70	18.11	0.01	7.66
13.012	10.61	18.02	0.01	7.66
13.042	10.61	18.02	0.01	7.66
13.071	10.61	18.02	0.01	7.66
13.101	10.86	18.28	0.01	7.66
13.131	10.86	18.28	-0.09	7.56
13.161	10.86	18.28	-0.09	7.56
13.190	10.97	18.38	-0.09	7.56
13.220	10.97	18.38	0.05	7.70
13.250	10.97	18.38	0.05	7.70
13.280	11.06	18.47	0.05	7.70
13.309	11.06	18.47	-0.07	7.58
13.339	11.06	18.47	-0.07	7.58
13.369	11.18	18.59	-0.07	7.58
13.399	11.18	18.59	0.01	7.66
13.429	11.18	18.59	0.01	7.66
13.458	11.16	18.57	0.01	7.66
13.488	11.16	18.57	0.01	7.66
13.518	11.16	18.57	0.01	7.66
13.548	11.16	18.58	0.01	7.66
13.577	11.16	18.58	-0.09	7.56
13.607	11.16	18.58	-0.09	7.56
13.637	11.18	18.59	-0.09	7.56
13.667	11.18	18.59	0.06	7.71
13.696	11.18	18.59	0.06	7.71
13.726	11.29	18.70	0.06	7.71
13.756	11.29	18.70	-0.06	7.59
13.786	11.29	18.70	-0.06	7.59
13.815	11.20	18.61	-0.06	7.59
13.845	11.20	18.61	0.01	7.66
13.875	11.20	18.61	0.01	7.66
13.905	11.05	18.46	0.01	7.66
13.934	11.05	18.46	0.01	7.66
13.964	11.05	18.46	0.01	7.66
13.994	11.30	18.71	0.01	7.66
14.024	11.30	18.71	-0.09	7.56
14.054	11.30	18.71	-0.09	7.56
14.083	11.29	18.70	-0.09	7.56
14.113	11.29	18.70	0.06	7.71
14.143	11.29	18.70	0.06	7.71
14.173	11.25	18.66	0.06	7.71
14.202	11.25	18.66	-0.06	7.59
14.232	11.25	18.66	-0.06	7.59
14.262	11.09	18.50	-0.06	7.59
14.292	11.09	18.50	0.01	7.66
14.321	11.09	18.50	0.01	7.66
14.351	10.45	17.86	0.01	7.66
14.381	10.45	17.86	0.00	7.65
14.411	10.45	17.86	0.00	7.65
14.440	10.32	17.73	0.00	7.65
14.470	10.32	17.73	-0.09	7.56
14.500	10.32	17.73	-0.09	7.56
14.530	10.50	17.91	-0.09	7.56
14.559	10.50	17.91	0.06	7.71
14.589	10.50	17.91	0.06	7.71
14.619	10.39	17.80	0.06	7.71
14.649	10.39	17.80	-0.06	7.59
14.679	10.39	17.80	-0.06	7.59
14.708	11.18	18.59	-0.06	7.59
14.738	11.18	18.59	0.01	7.66
14.768	11.18	18.59	0.01	7.66
14.798	10.99	18.40	0.01	7.66
14.827	10.99	18.40	0.00	7.65
14.857	10.99	18.40	0.00	7.65
14.887	11.09	18.50	0.00	7.65
14.917	11.09	18.50	-0.09	7.56
14.946	11.09	18.50	-0.09	7.56
14.976	11.20	18.61	-0.09	7.56
15.006	11.20	18.61	0.06	7.71
15.036	11.20	18.61	0.06	7.71
15.065	11.28	18.69	0.06	7.71
15.095	11.28	18.69	-0.06	7.59
15.125	11.28	18.69	-0.06	7.59
15.155	11.22	18.64	-0.06	7.59
15.184	11.22	18.64	0.01	7.66
15.214	11.22	18.64	0.01	7.66
15.244	10.85	18.26	0.01	7.66
15.274	10.85	18.26	0.00	7.65
15.304	10.85	18.26	0.00	7.65
15.333	10.70	18.11	0.00	7.65
15.363	10.70	18.11	-0.09	7.56
15.393	10.70	18.11	-0.09	7.56
15.423	10.66	18.07	-0.09	7.56
15.452	10.66	18.07	0.06	7.71
15.482	10.66	18.07	0.06	7.71
15.512	11.21	18.62	0.06	7.71
15.542	11.21	18.62	-0.07	7.58
15.571	11.21	18.62	-0.07	7.58
15.601	10.67	18.08	-0.07	7.58
15.631	10.67	18.08	0.01	7.67
15.661	10.67	18.08	0.01	7.67
15.690	10.65	18.06	0.01	7.67
15.720	10.65	18.06	0.00	7.65
15.750	10.65	18.06	0.00	7.65
15.780	10.76	18.17	0.00	7.65
15.809	10.76	18.17	-0.09	7.57
15.839	10.76	18.17	-0.09	7.57
15.869	10.84	18.25	-0.09	7.57
15.899	10.84	18.25	0.06	7.71
15.928	10.84	18.25	0.06	7.71
15.958	10.62	18.03	0.06	7.71
15.988	10.62	18.03	-0.07	7.58
16.018	10.62	18.03	-0.07	7.58
16.047	10.63	18.04	-0.07	7.58
16.077	10.63	18.04	0.01	7.66
16.107	10.63	18.04	0.01	7.66
16.137	10.60	18.01	0.01	7.66
16.167	10.60	18.01	-0.01	7.64
16.196	10.60	18.01	-0.01	7.64
16.226	10.97	18.38	-0.01	7.64
16.256	10.97	18.38	-0.09	7.56
16.286	10.97	18.38	-0.09	7.56
16.315	11.11	18.52	-0.09	7.56
16.345	11.11	18.52	0.06	7.71
16.375	11.11	18.52	0.06	7.71
16.405	11.29	18.70	0.06	7.71
16.434	11.29	18.70	-0.07	7.58
16.464	11.29	18.70	-0.07	7.58
16.494	11.15	18.56	-0.07	7.58
16.524	11.15	18.56	0.01	7.67
16.553	11.15	18.56	0.01	7.67
16.583	11.12	18.53	0.01	7.67
16.613	11.12	18.53	-0.01	7.64
16.643	11.12	18.53	-0.01	7.64
16.673	11.28	18.69	-0.01	7.64
16.702	11.28	18.69	-0.09	7.56
16.732	11.28	18.69	-0.09	7.56
16.762	11.27	18.68	-0.09	7.56
16.792	11.27	18.68	0.06	7.71
16.821	11.27	18.68	0.06	7.71
16.851	11.15	18.57	0.06	7.71
16.881	11.15	18.57	-0.07	7.58
16.911	11.15	18.57	-0.07	7.58
16.940	11.03	18.44	-0.07	7.58
16.970	11.03	18.44	0.01	7.67
17.000	11.03	18.44	0.01	7.67
17.030	11.15	18.56	0.01	7.67
17.059	11.15	18.56	-0.01	7.64
17.089	11.15	18.56	-0.01	7.64
17.119	11.02	18.43	-0.01	7.64
17.149	11.02	18.43	-0.09	7.57
17.178	11.02	18.43	-0.09	7.57
17.208	10.96	18.38	-0.09	7.57
17.238	10.96	18.38	0.06	7.71
17.268	10.96	18.38	0.06	7.71
17.297	10.90	18.31	0.06	7.71
17.327	10.90	18.31	-0.07	7.58
17.357	10.90	18.31	-0.07	7.58
17.387	11.01	18.43	-0.07	7.58
17.417	11.01	18.43	0.01	7.66
17.446	11.01	18.43	0.01	7.66
17.476	11.04	18.45	0.01	7.66
17.506	11.04	18.45	-0.01	7.64
17.536	11.04	18.45	-0.01	7.64
17.565	10.78	18.19	-0.01	7.64
17.595	10.78	18.19	-0.08	7.57
17.625	10.78	18.19	-0.08	7.57
17.655	10.97	18.38	-0.08	7.57
17.684	10.97	18.38	0.06	7.71
17.714	10.97	18.38	0.06	7.71
17.744	10.86	18.27	0.06	7.71
17.774	10.86	18.27	-0.07	7.58
17.803	10.86	18.27	-0.07	7.58
17.833	10.94	18.35	-0.07	7.58
17.863	10.94	18.35	0.01	7.66
17.893	10.94	18.35	0.01	7.66
17.922	10.66	18.07	0.01	7.66
17.952	10.66	18.07	-0.01	7.64
17.982	10.66	18.07	-0.01	7.64
18.012	10.69	18.10	-0.01	7.64
18.041	10.69	18.10	-0.08	7.57
18.071	10.69	18.10	-0.08	7.57
18.101	10.52	17.93	-0.08	7.57
18.131	10.52	17.93	0.06	7.71
18.161	10.52	17.93	0.06	7.71
18.190	10.46	17.88	0.06	7.71
18.220	10.46	17.88	-0.07	7.58
18.250	10.46	17.88	-0.07	7.58
18.280	10.90	18.31	-0.07	7.58
18.309	10.90	18.31	0.01	7.67
18.339	10.90	18.31	0.01	7.67
18.369	10.92	18.33	0.01	7.67
18.399	10.92	18.33	-0.01	7.64
18.428	10.92	18.33	-0.01	7.64
18.458	11.09	18.50	-0.01	7.64
18.488	11.09	18.50	-0.08	7.57
18.518	11.09	18.50	-0.08	7.57
18.547	11.09	18.50	-0.08	7.57
18.577	11.09	18.50	0.06	7.71
18.607	11.09	18.50	0.06	7.71
18.637	11.24	18.65	0.06	7.71
18.667	11.24	18.65	-0.07	7.58
18.696	11.24	18.65	-0.07	7.58
18.726	11.06	18.47	-0.07	7.58
18.756	11.06	18.47	0.01	7.67
18.786	11.06	18.47	0.01	7.67
18.815	10.91	18.32	0.01	7.67
18.845	10.91	18.32	-0.01	7.64
18.875	10.91	18.32	-0.01	7.64
18.905	10.69	18.10	-0.01	7.64
18.934	10.69	18.10	-0.08	7.57
18.964	10.69	18.10	-0.08	7.57
18.994	11.02	18.43	-0.08	7.57
19.024	11.02	18.43	0.06	7.72
19.053	11.02	18.43	0.06	7.72
19.083	11.11	18.52	0.06	7.72
19.113	11.11	18.52	-0.07	7.58
19.143	11.11	18.52	-0.07	7.58
19.172	11.20	18.61	-0.07	7.58
19.202	11.20	18.61	0.02	7.67
19.232	11.20	18.61	0.02	7.67
19.262	11.15	18.57	0.02	7.67
19.292	11.15	18.57	-0.02	7.63
19.321	11.15	18.57	-0.02	7.63
19.351	11.01	18.42	-0.02	7.63
19.381	11.01	18.42	-0.08	7.57
19.411	11.01	18.42	-0.08	7.57
19.440	10.99	18.40	-0.08	7.57
19.470	10.99	18.40	0.06	7.71
19.500	10.99	18.40	0.06	7.71
19.530	11.23	18.64	0.06	7.71
19.559	11.23	18.64	-0.07	7.58
19.589	11.23	18.64	-0.07	7.58
19.619	10.91	18.32	-0.07	7.58
19.649	10.91	18.32	0.02	7.67
19.678	10.91	18.32	0.02	7.67
19.708	11.00	18.41	0.02	7.67
19.738	11.00	18.41	-0.02	7.63
19.768	11.00	18.41	-0.02	7.63
19.797	10.71	18.12	-0.02	7.63
19.827	10.71	18.12	-0.08	7.57
19.857	10.71	18.12	-0.08	7.57
19.887	10.96	18.37	-0.08	7.57
19.916	10.96	18.37	0.06	7.71
19.946	10.96	18.37	0.06	7.71
19.976	10.82	18.23	0.06	7.71
20.006	10.82	18.23	-0.07	7.58
20.036	10.82	18.23	-0.07	7.58
20.065	10.58	17.99	-0.07	7.58
20.095	10.58	17.99	0.02	7.67
20.125	10.58	17.99	0.02	7.67
20.155	10.94	18.35	0.02	7.67
20.184	10.94	18.35	-0.02	7.63
20.214	10.94	18.35	-0.02	7.63
20.244	10.58	17.99	-0.02	7.63
20.274	10.58	17.99	-0.08	7.57
20.303	10.58	17.99	-0.08	7.57
20.333	10.74	18.15	-0.08	7.57
20.363	10.74	18.15	0.06	7.71
20.393	10.74	18.15	0.06	7.71
20.422	11.17	18.58	0.06	7.71
20.452	11.17	18.58	-0.07	7.58
20.482	11.17	18.58	-0.07	7.58
20.512	11.07	18.48	-0.07	7.58
20.541	11.07	18.48	0.02	7.67
20.571	11.07	18.48	0.02	7.67
20.601	11.04	18.45	0.02	7.67
20.631	11.04	18.45	-0.02	7.63
20.661	11.04	18.45	-0.02	7.63
20.690	11.17	18.58	-0.02	7.63
20.720	11.17	18.58	-0.08	7.57
20.750	11.17	18.58	-0.08	7.57
20.780	11.05	18.46	-0.08	7.57
20.809	11.05	18.46	0.06	7.71
20.839	11.05	18.46	0.06	7.71
20.869	10.56	17.97	0.06	7.71
20.899	10.56	17.97	-0.08	7.57
20.928	10.56	17.97	-0.08	7.57
20.958	10.60	18.01	-0.08	7.57
20.988	10.60	18.01	0.02	7.67
21.018	10.60	18.01	0.02	7.67
21.047	11.03	18.44	0.02	7.67
21.077	11.03	18.44	-0.02	7.63
21.107	11.03	18.44	-0.02	7.63
21.137	10.73	18.14	-0.02	7.63
21.166	10.73	18.14	-0.08	7.57
21.196	10.73	18.14	-0.08	7.57
21.226	10.51	17.92	-0.08	7.57
21.256	10.51	17.92	0.06	7.71
21.286	10.51	17.92	0.06	7.71
21.315	11.11	18.52	0.06	7.71
21.345	11.11	18.52	-0.07	7.58
21.375	11.11	18.52	-0.07	7.58
21.405	11.36	18.77	-0.07	7.58
21.434	11.36	18.77	0.02	7.67
21.464	11.36	18.77	0.02	7.67
21.494	10.66	18.07	0.02	7.67
21.524	10.66	18.07	-0.02	7.63
21.553	10.66	18.07	-0.02	7.63
21.583	10.60	18.01	-0.02	7.63
21.613	10.60	18.01	-0.08	7.57
21.643	10.60	18.01	-0.08	7.57
21.672	10.54	17.95	-0.08	7.57
21.702	10.54	17.95	0.06	7.71
21.732	10.54	17.95	0.06	7.71
21.762	10.96	18.37	0.06	7.71
21.791	10.96	18.37	-0.07	7.58
21.821	10.96	18.37	-0.07	7.58
21.851	10.51	17.93	-0.07	7.58
21.881	10.51	17.93	0.02	7.67
21.910	10.51	17.93	0.02	7.67
21.940	10.34	17.75	0.02	7.67
21.970	10.34	17.75	-0.02	7.63
22.000	10.34	17.75	-0.02	7.63
22.030	10.32	17.73	-0.02	7.63
22.059	10.32	17.73	-0.07	7.58
22.089	10.32	17.73	-0.07	7.58
22.119	10.30	17.71	-0.07	7.58
22.149	10.30	17.71	0.06	7.71
22.178	10.30	17.71	0.06	7.71
22.208	10.32	17.73	0.06	7.71
22.238	10.32	17.73	-0.08	7.57
22.268	10.32	17.73	-0.08	7.57
22.297	10.25	17.66	-0.08	7.57
22.327	10.25	17.66	0.02	7.67
22.357	10.25	17.66	0.02	7.67
22.387	10.28	17.69	0.02	7.67
22.416	10.28	17.69	-0.02	7.63
22.446	10.28	17.69	-0.02	7.63
22.476	10.15	17.56	-0.02	7.63
22.506	10.15	17.56	-0.07	7.58
22.536	10.15	17.56	-0.07	7.58
22.565	10.30	17.71	-0.07	7.58
22.595	10.30	17.71	0.06	7.71
22.625	10.30	17.71	0.06	7.71
22.655	10.51	17.92	0.06	7.71
22.684	10.51	17.92	-0.08	7.57
22.714	10.51	17.92	-0.08	7.57
22.744	10.66	18.07	-0.08	7.57
22.774	10.66	18.07	0.02	7.67
22.803	10.66	18.07	0.02	7.67
22.833	10.23	17.64	0.02	7.67
22.863	10.23	17.64	-0.02	7.63
22.893	10.23	17.64	-0.02	7.63
22.922	10.41	17.83	-0.02	7.63
22.952	10.41	17.83	-0.07	7.58
22.982	10.41	17.83	-0.07	7.58
23.012	10.42	17.83	-0.07	7.58
23.041	10.42	17.83	0.06	7.71
23.071	10.42	17.83	0.06	7.71
23.101	10.37	17.78	0.06	7.71
23.131	10.37	17.78	-0.08	7.57
23.160	10.37	17.78	-0.08	7.57
23.190	10.74	18.15	-0.08	7.57
23.220	10.74	18.15	0.02	7.67
23.250	10.74	18.15	0.02	7.67
23.280	10.59	18.00	0.02	7.67
23.309	10.59	18.00	-0.02	7.63
23.339	10.59	18.00	-0.02	7.63
23.369	10.44	17.85	-0.02	7.63
23.399	10.44	17.85	-0.07	7.58
23.428	10.44	17.85	-0.07	7.58
23.458	10.44	17.85	-0.07	7.58
23.488	10.44	17.85	0.06	7.71
23.518	10.44	17.85	0.06	7.71
23.547	10.14	17.55	0.06	7.71
23.577	10.14	17.55	-0.08	7.57
23.607	10.14	17.55	-0.08	7.57
23.637	10.28	17.69	-0.08	7.57
23.666	10.28	17.69	0.02	7.67
23.696	10.28	17.69	0.02	7.67
23.726	10.73	18.14	0.02	7.67
23.756	10.73	18.14	-0.02	7.63
23.785	10.73	18.14	-0.02	7.63
23.815	10.63	18.04	-0.02	7.63
23.845	10.63	18.04	-0.07	7.58
23.875	10.63	18.04	-0.07	7.58
23.905	10.73	18.14	-0.07	7.58
23.934	10.73	18.14	0.06	7.71
23.964	10.73	18.14	0.06	7.71
23.994	10.62	18.03	0.06	7.71
24.024	10.62	18.03	-0.08	7.57
24.053	10.62	18.03	-0.08	7.57
24.083	10.13	17.54	-0.08	7.57
24.113	10.13	17.54	0.02	7.67
24.143	10.13	17.54	0.02	7.67
24.172	10.06	17.47	0.02	7.67
24.202	10.06	17.47	-0.02	7.63
24.232	10.06	17.47	-0.02	7.63
24.262	10.58	17.99	-0.02	7.63
24.291	10.58	17.99	-0.07	7.58
24.321	10.58	17.99	-0.07	7.58
24.351	10.26	17.68	-0.07	7.58
24.381	10.26	17.68	0.06	7.71
24.410	10.26	17.68	0.06	7.71
24.440	10.34	17.75	0.06	7.71
24.470	10.34	17.75	-0.08	7.57
24.500	10.34	17.75	-0.08	7.57
24.530	10.27	17.68	-0.08	7.57
24.559	10.27	17.68	0.02	7.67
24.589	10.27	17.68	0.02	7.67
24.619	10.20	17.62	0.02	7.67
24.649	10.20	17.62	-0.02	7.63
24.678	10.20	17.62	-0.02	7.63
24.708	10.16	17.57	-0.02	7.63
24.738	10.16	17.57	-0.07	7.58
24.768	10.16	17.57	-0.07	7.58
24.797	10.38	17.79	-0.07	7.58
24.827	10.38	17.79	0.06	7.71
24.857	10.38	17.79	0.06	7.71
24.887	10.24	17.65	0.06	7.71
24.916	10.24	17.65	-0.08	7.57
24.946	10.24	17.65	-0.08	7.57
24.976	10.33	17.74	-0.08	7.57
25.006	10.33	17.74	0.02	7.67
25.035	10.33	17.74	0.02	7.67
25.065	10.74	18.15	0.02	7.67
25.095	10.74	18.15	-0.02	7.63
25.125	10.74	18.15	-0.02	7.63
25.155	10.83	18.24	-0.02	7.63
25.184	10.83	18.24	-0.07	7.58
25.214	10.83	18.24	-0.07	7.58
25.244	10.91	18.33	-0.07	7.58
25.274	10.91	18.33	0.06	7.71
25.303	10.91	18.33	0.06	7.71
25.333	11.01	18.43	0.06	7.71
25.363	11.01	18.43	-0.08	7.57
25.393	11.01	18.43	-0.08	7.57
25.422	10.40	17.82	-0.08	7.57
25.452	10.40	17.82	0.02	7.67
25.482	10.40	17.82	0.02	7.67
25.512	10.53	17.94	0.02	7.67
25.541	10.53	17.94	-0.02	7.63
25.571	10.53	17.94	-0.02	7.63
25.601	10.28	17.69	-0.02	7.63
25.631	10.28	17.69	-0.07	7.58
25.660	10.28	17.69	-0.07	7.58
25.690	10.38	17.79	-0.07	7.58
25.720	10.38	17.79	0.06	7.71
25.750	10.38	17.79	0.06	7.71
25.780	10.75	18.16	0.06	7.71
25.809	10.75	18.16	-0.08	7.57
25.839	10.75	18.16	-0.08	7.57
25.869	10.41	17.82	-0.08	7.57
25.899	10.41	17.82	0.02	7.67
25.928	10.41	17.82	0.02	7.67
25.958	10.59	18.00	0.02	7.67
25.988	10.59	18.00	-0.02	7.63
26.018	10.59	18.00	-0.02	7.63
26.047	10.55	17.97	-0.02	7.63
26.077	10.55	17.97	-0.07	7.58
26.107	10.55	17.97	-0.07	7.58
26.137	10.67	18.08	-0.07	7.58
26.166	10.67	18.08	0.06	7.71
26.196	10.67	18.08	0.06	7.71
26.226	10.64	18.05	0.06	7.71
26.256	10.64	18.05	-0.08	7.57
26.285	10.64	18.05	-0.08	7.57
26.315	10.96	18.38	-0.08	7.57
26.345	10.96	18.38	0.02	7.67
26.375	10.96	18.38	0.02	7.67
26.405	10.81	18.22	0.02	7.67
26.434	10.81	18.22	-0.02	7.63
26.464	10.81	18.22	-0.02	7.63
26.494	10.74	18.15	-0.02	7.63
26.524	10.74	18.15	-0.08	7.57
26.553	10.74	18.15	-0.08	7.57
26.583	10.92	18.33	-0.08	7.57
26.613	10.92	18.33	0.06	7.71
26.643	10.92	18.33	0.06	7.71
26.672	10.81	18.22	0.06	7.71
26.702	10.81	18.22	-0.08	7.57
26.732	10.81	18.22	-0.08	7.57
26.762	10.29	17.70	-0.08	7.57
26.791	10.29	17.70	0.02	7.67
26.821	10.29	17.70	0.02	7.67
26.851	10.39	17.80	0.02	7.67
26.881	10.39	17.80	-0.02	7.63
26.910	10.39	17.80	-0.02	7.63
26.940	10.29	17.70	-0.02	7.63
26.970	10.29	17.70	-0.07	7.58
27.000	10.29	17.70	-0.07	7.58
27.029	10.38	17.79	-0.07	7.58
27.059	10.38	17.79	0.06	7.71
27.089	10.38	17.79	0.06	7.71
27.119	10.51	17.92	0.06	7.71
27.149	10.51	17.92	-0.08	7.57
27.178	10.51	17.92	-0.08	7.57
27.208	10.97	18.38	-0.08	7.57
27.238	10.97	18.38	0.02	7.67
27.268	10.97	18.38	0.02	7.67
27.297	10.74	18.15	0.02	7.67
27.327	10.74	18.15	-0.02	7.63
27.357	10.74	18.15	-0.02	7.63
27.387	10.46	17.87	-0.02	7.63
27.416	10.46	17.87	-0.08	7.57
27.446	10.46	17.87	-0.08	7.57
27.476	10.89	18.30	-0.08	7.57
27.506	10.89	18.30	0.06	7.71
27.535	10.89	18.30	0.06	7.71
27.565	10.56	17.97	0.06	7.71
27.595	10.56	17.97	-0.07	7.58
27.625	10.56	17.97	-0.07	7.58
27.655	10.81	18.22	-0.07	7.58
27.684	10.81	18.22	0.02	7.67
27.714	10.81	18.22	0.02	7.67
27.744	10.86	18.27	0.02	7.67
27.774	10.86	18.27	-0.02	7.63
27.803	10.86	18.27	-0.02	7.63
27.833	10.48	17.89	-0.02	7.63
27.863	10.48	17.89	-0.08	7.57
27.893	10.48	17.89	-0.08	7.57
27.922	10.43	17.84	-0.08	7.57
27.952	10.43	17.84	0.06	7.71
27.982	10.43	17.84	0.06	7.71
28.012	10.45	17.86	0.06	7.71
28.041	10.45	17.86	-0.07	7.58
28.071	10.45	17.86	-0.07	7.58
28.101	10.44	17.85	-0.07	7.58
28.131	10.44	17.85	0.02	7.67
28.160	10.44	17.85	0.02	7.67
28.190	10.52	17.93	0.02	7.67
28.220	10.52	17.93	-0.02	7.63
28.250	10.52	17.93	-0.02	7.63
28.280	10.89	18.30	-0.02	7.63
28.309	10.89	18.30	-0.07	7.58
28.339	10.89	18.30	-0.07	7.58
28.369	10.94	18.35	-0.07	7.58
28.399	10.94	18.35	0.06	7.71
28.428	10.94	18.35	0.06	7.71
28.458	10.62	18.03	0.06	7.71
28.488	10.62	18.03	-0.08	7.57
28.518	10.62	18.03	-0.08	7.57
28.547	10.46	17.87	-0.08	7.57
28.577	10.46	17.87	0.02	7.67
28.607	10.46	17.87	0.02	7.67
28.637	10.45	17.87	0.02	7.67
28.666	10.45	17.87	-0.02	7.63
28.696	10.45	17.87	-0.02	7.63
28.726	10.43	17.84	-0.02	7.63
28.756	10.43	17.84	-0.08	7.57
28.785	10.43	17.84	-0.08	7.57
28.815	11.07	18.49	-0.08	7.57
28.845	11.07	18.49	0.06	7.71
28.875	11.07	18.49	0.06	7.71
28.904	10.38	17.79	0.06	7.71
28.934	10.38	17.79	-0.07	7.58
28.964	10.38	17.79	-0.07	7.58
28.994	10.39	17.80	-0.07	7.58
29.024	10.39	17.80	0.02	7.67
29.053	10.39	17.80	0.02	7.67
29.083	10.32	17.73	0.02	7.67
29.113	10.32	17.73	-0.02	7.63
29.143	10.32	17.73	-0.02	7.63
29.172	10.37	17.78	-0.02	7.63
29.202	10.37	17.78	-0.08	7.57
29.232	10.37	17.78	-0.08	7.57
29.262	10.48	17.89	-0.08	7.57
29.291	10.48	17.89	0.06	7.72
29.321	10.48	17.89	0.06	7.72
29.351	10.32	17.73	0.06	7.72
29.381	10.32	17.73	-0.07	7.58
29.410	10.32	17.73	-0.07	7.58
29.440	11.05	18.46	-0.07	7.58
29.470	11.05	18.46	0.02	7.67
29.500	11.05	18.46	0.02	7.67
29.530	11.19	18.60	0.02	7.67
29.559	11.19	18.60	-0.02	7.63
29.589	11.19	18.60	-0.02	7.63
29.619	10.79	18.20	-0.02	7.63
29.649	10.79	18.20	-0.08	7.57
29.678	10.79	18.20	-0.08	7.57
29.708	10.69	18.10	-0.08	7.57
29.738	10.69	18.10	0.06	7.71
29.768	10.69	18.10	0.06	7.71
29.797	11.03	18.44	0.06	7.71
29.827	11.03	18.44	-0.07	7.58
29.857	11.03	18.44	-0.07	7.58
29.887	10.89	18.30	-0.07	7.58
29.916	10.89	18.30	0.02	7.67
29.946	10.89	18.30	0.02	7.67
29.976	10.60	18.01	0.02	7.67
30.006	10.60	18.01	-0.02	7.63
30.035	10.60	18.01	-0.02	7.63
30.065	10.52	17.93	-0.02	7.63
30.095	10.52	17.93	-0.08	7.57
30.125	10.52	17.93	-0.08	7.57
30.154	11.02	18.43	-0.08	7.57
30.184	11.02	18.43	0.06	7.71
30.214	11.02	18.43	0.06	7.71
30.244	10.88	18.29	0.06	7.71
30.274	10.88	18.29	-0.07	7.58
30.303	10.88	18.29	-0.07	7.58
30.333	10.51	17.93	-0.07	7.58
30.363	10.51	17.93	0.02	7.67
30.393	10.51	17.93	0.02	7.67
30.422	10.58	17.99	0.02	7.67
30.452	10.58	17.99	-0.01	7.64
30.482	10.58	17.99	-0.01	7.64
30.512	10.64	18.05	-0.01	7.64
30.541	10.64	18.05	-0.08	7.57
30.571	10.64	18.05	-0.08	7.57
30.601	11.17	18.58	-0.08	7.57
30.631	11.17	18.58	0.06	7.71
30.660	11.17	18.58	0.06	7.71
30.690	10.58	17.99	0.06	7.71
30.720	10.58	17.99	-0.07	7.58
30.750	10.58	17.99	-0.07	7.58
30.779	10.41	17.82	-0.07	7.58
30.809	10.41	17.82	0.02	7.67
30.839	10.41	17.82	0.02	7.67
30.869	11.09	18.50	0.02	7.67
30.899	11.09	18.50	-0.01	7.64
30.928	11.09	18.50	-0.01	7.64
30.958	10.47	17.89	-0.01	7.64
30.988	10.47	17.89	-0.08	7.57
31.018	10.47	17.89	-0.08	7.57
31.047	11.20	18.61	-0.08	7.57
31.077	11.20	18.61	0.06	7.71
31.107	11.20	18.61	0.06	7.71
31.137	10.79	18.20	0.06	7.71
31.166	10.79	18.20	-0.07	7.58
31.196	10.79	18.20	-0.07	7.58
31.226	10.35	17.76	-0.07	7.58
31.256	10.35	17.76	0.01	7.66
31.285	10.35	17.76	0.01	7.66
31.315	10.40	17.81	0.01	7.66
31.345	10.40	17.81	-0.01	7.64
31.375	10.40	17.81	-0.01	7.64
31.405	10.38	17.79	-0.01	7.64
31.434	10.38	17.79	-0.09	7.57
31.464	10.38	17.79	-0.09	7.57
31.494	11.35	18.77	-0.09	7.57
31.524	11.35	18.77	0.06	7.71
31.553	11.35	18.77	0.06	7.71
31.583	11.42	18.83	0.06	7.71
31.613	11.42	18.83	-0.07	7.58
31.643	11.42	18.83	-0.07	7.58
31.672	10.91	18.32	-0.07	7.58
31.702	10.91	18.32	0.01	7.67
31.732	10.91	18.32	0.01	7.67
31.762	11.07	18.48	0.01	7.67
31.791	11.07	18.48	-0.01	7.64
31.821	11.07	18.48	-0.01	7.64
31.851	11.25	18.67	-0.01	7.64
31.881	11.25	18.67	-0.08	7.57
31.910	11.25	18.67	-0.08	7.57
31.940	11.12	18.53	-0.08	7.57
31.970	11.12	18.53	0.06	7.71
32.000	11.12	18.53	0.06	7.71
32.030	10.83	18.24	0.06	7.71
32.059	10.83	18.24	-0.07	7.58
32.089	10.83	18.24	-0.07	7.58
32.119	11.37	18.78	-0.07	7.58
32.149	11.37	18.78	0.01	7.67
32.178	11.37	18.78	0.01	7.67
32.208	11.46	18.88	0.01	7.67
32.238	11.46	18.88	-0.01	7.64
32.268	11.46	18.88	-0.01	7.64
32.297	11.11	18.52	-0.01	7.64
32.327	11.11	18.52	-0.08	7.57
32.357	11.11	18.52	-0.08	7.57
32.387	11.03	18.44	-0.08	7.57
32.416	11.03	18.44	0.06	7.71
32.446	11.03	18.44	0.06	7.71
32.476	11.07	18.48	0.06	7.71
32.506	11.07	18.48	-0.07	7.58
32.535	11.07	18.48	-0.07	7.58
32.565	10.91	18.32	-0.07	7.58
32.595	10.91	18.32	0.02	7.67
32.625	10.91	18.32	0.02	7.67
32.654	11.27	18.68	0.02	7.67
32.684	11.27	18.68	-0.01	7.64
32.714	11.27	18.68	-0.01	7.64
32.744	11.21	18.62	-0.01	7.64
32.774	11.21	18.62	-0.09	7.57
32.803	11.21	18.62	-0.09	7.57
32.833	11.00	18.42	-0.09	7.57
32.863	11.00	18.42	0.06	7.71
32.893	11.00	18.42	0.06	7.71
32.922	11.10	18.51	0.06	7.71
32.952	11.10	18.51	-0.07	7.58
32.982	11.10	18.51	-0.07	7.58
33.012	10.68	18.09	-0.07	7.58
33.041	10.68	18.09	0.02	7.67
33.071	10.68	18.09	0.02	7.67
33.101	11.04	18.45	0.02	7.67
33.131	11.04	18.45	-0.01	7.64
33.160	11.04	18.45	-0.01	7.64
33.190	11.12	18.53	-0.01	7.64
33.220	11.12	18.53	-0.09	7.57
33.250	11.12	18.53	-0.09	7.57
33.280	11.34	18.75	-0.09	7.57
33.309	11.34	18.75	0.06	7.71
33.339	11.34	18.75	0.06	7.71
33.369	11.18	18.59	0.06	7.71
33.399	11.18	18.59	-0.07	7.58
33.428	11.18	18.59	-0.07	7.58
33.458	11.30	18.71	-0.07	7.58
33.488	11.30	18.71	0.01	7.67
33.518	11.30	18.71	0.01	7.67
33.547	10.63	18.04	0.01	7.67
33.577	10.63	18.04	-0.01	7.64
33.607	10.63	18.04	-0.01	7.64
33.637	11.11	18.53	-0.01	7.64
33.666	11.11	18.53	-0.09	7.57
33.696	11.11	18.53	-0.09	7.57
33.726	10.64	18.05	-0.09	7.57
33.756	10.64	18.05	0.06	7.71
33.785	10.64	18.05	0.06	7.71
33.815	10.56	17.97	0.06	7.71
33.845	10.56	17.97	-0.07	7.58
33.875	10.56	17.97	-0.07	7.58
33.904	11.14	18.55	-0.07	7.58
33.934	11.14	18.55	0.01	7.66
33.964	11.14	18.55	0.01	7.66
33.994	11.20	18.61	0.01	7.66
34.023	11.20	18.61	-0.01	7.64
34.053	11.20	18.61	-0.01	7.64
34.083	11.27	18.68	-0.01	7.64
34.113	11.27	18.68	-0.09	7.57
34.143	11.27	18.68	-0.09	7.57
34.172	11.40	18.82	-0.09	7.57
34.202	11.40	18.82	0.06	7.71
34.232	11.40	18.82	0.06	7.71
34.262	11.26	18.67	0.06	7.71
34.291	11.26	18.67	-0.07	7.58
34.321	11.26	18.67	-0.07	7.58
34.351	11.33	18.74	-0.07	7.58
34.381	11.33	18.74	0.01	7.67
34.410	11.33	18.74	0.01	7.67
34.440	11.21	18.62	0.01	7.67
34.470	11.21	18.62	-0.01	7.64
34.500	11.21	18.62	-0.01	7.64
34.529	11.32	18.73	-0.01	7.64
34.559	11.32	18.73	-0.09	7.57
34.589	11.32	18.73	-0.09	7.57
34.619	11.17	18.58	-0.09	7.57
34.649	11.17	18.58	0.06	7.71
34.678	11.17	18.58	0.06	7.71
34.708	10.55	17.96	0.06	7.71
34.738	10.55	17.96	-0.07	7.58
34.768	10.55	17.96	-0.07	7.58
34.797	10.57	17.98	-0.07	7.58
34.827	10.57	17.98	0.02	7.67
34.857	10.57	17.98	0.02	7.67
34.887	10.49	17.90	0.02	7.67
34.916	10.49	17.90	-0.01	7.64
34.946	10.49	17.90	-0.01	7.64
34.976	10.61	18.02	-0.01	7.64
35.006	10.61	18.02	-0.08	7.57
35.035	10.61	18.02	-0.08	7.57
35.065	10.46	17.87	-0.08	7.57
35.095	10.46	17.87	0.06	7.71
35.125	10.46	17.87	0.06	7.71
35.154	10.90	18.31	0.06	7.71
35.184	10.90	18.31	-0.07	7.58
35.214	10.90	18.31	-0.07	7.58
35.244	10.33	17.74	-0.07	7.58
35.274	10.33	17.74	0.01	7.67
35.303	10.33	17.74	0.01	7.67
35.333	10.40	17.81	0.01	7.67
35.363	10.40	17.81	-0.01	7.64
35.393	10.40	17.81	-0.01	7.64
35.422	10.33	17.74	-0.01	7.64
35.452	10.33	17.74	-0.09	7.57
35.482	10.33	17.74	-0.09	7.57
35.512	10.45	17.86	-0.09	7.57
35.541	10.45	17.86	0.06	7.71
35.571	10.45	17.86	0.06	7.71
35.601	10.51	17.92	0.06	7.71
35.631	10.51	17.92	-0.07	7.58
35.660	10.51	17.92	-0.07	7.58
35.690	10.41	17.82	-0.07	7.58
35.720	10.41	17.82	0.01	7.67
35.750	10.41	17.82	0.01	7.67
35.779	10.59	18.00	0.01	7.67
35.809	10.59	18.00	-0.01	7.64
35.839	10.59	18.00	-0.01	7.64
35.869	10.79	18.20	-0.01	7.64
35.899	10.79	18.20	-0.08	7.57
35.928	10.79	18.20	-0.08	7.57
35.958	10.49	17.90	-0.08	7.57
35.988	10.49	17.90	0.06	7.71
36.018	10.49	17.90	0.06	7.71
36.047	10.82	18.23	0.06	7.71
36.077	10.82	18.23	-0.07	7.58
36.107	10.82	18.23	-0.07	7.58
36.137	10.40	17.81	-0.07	7.58
36.166	10.40	17.81	0.02	7.67
36.196	10.40	17.81	0.02	7.67
36.226	10.79	18.20	0.02	7.67
36.256	10.79	18.20	-0.02	7.63
36.285	10.79	18.20	-0.02	7.63
36.315	10.97	18.38	-0.02	7.63
36.345	10.97	18.38	-0.08	7.57
36.375	10.97	18.38	-0.08	7.57
36.405	10.82	18.23	-0.08	7.57
36.434	10.82	18.23	0.06	7.71
36.464	10.82	18.23	0.06	7.71
36.494	10.85	18.27	0.06	7.71
36.524	10.85	18.27	-0.07	7.58
36.553	10.85	18.27	-0.07	7.58
36.583	10.80	18.21	-0.07	7.58
36.613	10.80	18.21	0.02	7.67
36.643	10.80	18.21	0.02	7.67
36.672	10.50	17.91	0.02	7.67
36.702	10.50	17.91	-0.02	7.63
36.732	10.50	17.91	-0.02	7.63
36.762	10.60	18.01	-0.02	7.63
36.791	10.60	18.01	-0.08	7.57
36.821	10.60	18.01	-0.08	7.57
36.851	10.95	18.36	-0.08	7.57
36.881	10.95	18.36	0.06	7.71
36.910	10.95	18.36	0.06	7.71
36.940	10.37	17.78	0.06	7.71
36.970	10.37	17.78	-0.07	7.58
37.000	10.37	17.78	-0.07	7.58
37.030	10.57	17.98	-0.07	7.58
37.059	10.57	17.98	0.01	7.67
37.089	10.57	17.98	0.01	7.67
37.119	10.87	18.28	0.01	7.67
37.149	10.87	18.28	-0.02	7.63
37.178	10.87	18.28	-0.02	7.63
37.208	10.40	17.81	-0.02	7.63
37.238	10.40	17.81	-0.07	7.58
37.268	10.40	17.81	-0.07	7.58
37.297	10.84	18.25	-0.07	7.58
37.327	10.84	18.25	0.06	7.71
37.357	10.84	18.25	0.06	7.71
37.387	10.96	18.37	0.06	7.71
37.416	10.96	18.37	-0.08	7.57
37.446	10.96	18.37	-0.08	7.57
37.476	11.00	18.41	-0.08	7.57
37.506	11.00	18.41	0.02	7.67
37.535	11.00	18.41	0.02	7.67
37.565	10.95	18.36	0.02	7.67
37.595	10.95	18.36	-0.02	7.63
37.625	10.95	18.36	-0.02	7.63
37.655	10.88	18.29	-0.02	7.63
37.684	10.88	18.29	-0.07	7.58
37.714	10.88	18.29	-0.07	7.58
37.744	10.93	18.34	-0.07	7.58
37.774	10.93	18.34	0.06	7.71
37.803	10.93	18.34	0.06	7.71
37.833	11.05	18.46	0.06	7.71
37.863	11.05	18.46	-0.07	7.58
37.893	11.05	18.46	-0.07	7.58
37.922	11.21	18.62	-0.07	7.58
37.952	11.21	18.62	0.02	7.67
37.982	11.21	18.62	0.02	7.67
38.012	11.36	18.77	0.02	7.67
38.041	11.36	18.77	-0.03	7.62
38.071	11.36	18.77	-0.03	7.62
38.101	11.35	18.76	-0.03	7.62
38.131	11.35	18.76	-0.07	7.58
38.160	11.35	18.76	-0.07	7.58
38.190	11.35	18.77	-0.07	7.58
38.220	11.35	18.77	0.06	7.72
38.250	11.35	18.77	0.06	7.72
38.280	11.29	18.70	0.06	7.72
38.309	11.29	18.70	-0.08	7.57
38.339	11.29	18.70	-0.08	7.57
38.369	11.40	18.81	-0.08	7.57
38.399	11.40	18.81	0.02	7.67
38.428	11.40	18.81	0.02	7.67
38.458	11.35	18.76	0.02	7.67
38.488	11.35	18.76	-0.03	7.62
38.518	11.35	18.76	-0.03	7.62
38.547	11.35	18.76	-0.03	7.62
38.577	11.35	18.76	-0.07	7.58
38.607	11.35	18.76	-0.07	7.58
38.637	11.37	18.78	-0.07	7.58
38.666	11.37	18.78	0.06	7.71
38.696	11.37	18.78	0.06	7.71
38.726	11.39	18.80	0.06	7.71
38.756	11.39	18.80	-0.07	7.58
38.785	11.39	18.80	-0.07	7.58
38.815	11.31	18.73	-0.07	7.58
38.845	11.31	18.73	0.02	7.67
38.875	11.31	18.73	0.02	7.67
38.905	11.39	18.80	0.02	7.67
38.934	11.39	18.80	-0.03	7.62
38.964	11.39	18.80	-0.03	7.62
38.994	11.33	18.74	-0.03	7.62
39.024	11.33	18.74	-0.07	7.58
39.053	11.33	18.74	-0.07	7.58
39.083	11.37	18.78	-0.07	7.58
39.113	11.37	18.78	0.06	7.71
39.143	11.37	18.78	0.06	7.71
39.172	11.31	18.72	0.06	7.71
39.202	11.31	18.72	-0.08	7.57
39.232	11.31	18.72	-0.08	7.57
39.262	11.31	18.73	-0.08	7.57
39.291	11.31	18.73	0.03	7.68
39.321	11.31	18.73	0.03	7.68
39.351	11.37	18.78	0.03	7.68
39.381	11.37	18.78	-0.03	7.62
39.410	11.37	18.78	-0.03	7.62
39.440	11.32	18.73	-0.03	7.62
39.470	11.32	18.73	-0.06	7.59
39.500	11.32	18.73	-0.06	7.59
39.530	11.38	18.79	-0.06	7.59
39.559	11.38	18.79	0.06	7.71
39.589	11.38	18.79	0.06	7.71
39.619	11.31	18.72	0.06	7.71
39.649	11.31	18.72	-0.08	7.57
39.678	11.31	18.72	-0.08	7.57
39.708	11.45	18.86	-0.08	7.57
39.738	11.45	18.86	0.02	7.67
39.768	11.45	18.86	0.02	7.67
39.797	11.50	18.91	0.02	7.67
39.827	11.50	18.91	-0.03	7.62
39.857	11.50	18.91	-0.03	7.62
39.887	11.48	18.89	-0.03	7.62
39.916	11.48	18.89	-0.06	7.59
39.946	11.48	18.89	-0.06	7.59
39.976	11.51	18.92	-0.06	7.59
40.006	11.51	18.92	0.06	7.71
40.035	11.51	18.92	0.06	7.71
40.065	11.53	18.94	0.06	7.71
40.095	11.53	18.94	-0.09	7.57
40.125	11.53	18.94	-0.09	7.57
40.155	11.47	18.88	-0.09	7.57
40.184	11.47	18.88	0.02	7.67
40.214	11.47	18.88	0.02	7.67
40.244	11.41	18.83	0.02	7.67
40.274	11.41	18.83	-0.04	7.62
40.303	11.41	18.83	-0.04	7.62
40.333	11.41	18.82	-0.04	7.62
40.363	11.41	18.82	-0.06	7.59
40.393	11.41	18.82	-0.06	7.59
40.422	11.48	18.89	-0.06	7.59
40.452	11.48	18.89	0.06	7.71
40.482	11.48	18.89	0.06	7.71
40.512	11.45	18.86	0.06	7.71
40.541	11.45	18.86	-0.09	7.56
40.571	11.45	18.86	-0.09	7.56
40.601	11.43	18.84	-0.09	7.56
40.631	11.43	18.84	0.03	7.68
40.660	11.43	18.84	0.03	7.68
40.690	11.46	18.87	0.03	7.68
40.720	11.46	18.87	-0.03	7.62
40.750	11.46	18.87	-0.03	7.62
40.780	11.44	18.85	-0.03	7.62
40.809	11.44	18.85	-0.06	7.59
40.839	11.44	18.85	-0.06	7.59
40.869	11.45	18.86	-0.06	7.59
40.899	11.45	18.86	0.06	7.71
40.928	11.45	18.86	0.06	7.71
40.958	11.43	18.84	0.06	7.71
40.988	11.43	18.84	-0.09	7.56
41.018	11.43	18.84	-0.09	7.56
41.047	11.41	18.82	-0.09	7.56
41.077	11.41	18.82	0.03	7.68
41.107	11.41	18.82	0.03	7.68
41.137	11.43	18.84	0.03	7.68
41.166	11.43	18.84	-0.04	7.61
41.196	11.43	18.84	-0.04	7.61
41.226	11.43	18.84	-0.04	7.61
41.256	11.43	18.84	-0.05	7.60
41.285	11.43	18.84	-0.05	7.60
41.315	11.52	18.93	-0.05	7.60
41.345	11.52	18.93	0.06	7.71
41.375	11.52	18.93	0.06	7.71
41.405	10.96	18.37	0.06	7.71
41.434	10.96	18.37	-0.09	7.56
41.464	10.96	18.37	-0.09	7.56
41.494	11.27	18.69	-0.09	7.56
41.524	11.27	18.69	0.03	7.68
41.553	11.27	18.69	0.03	7.68
41.583	11.20	18.61	0.03	7.68
41.613	11.20	18.61	-0.04	7.61
41.643	11.20	18.61	-0.04	7.61
41.672	10.95	18.37	-0.04	7.61
41.702	10.95	18.37	-0.06	7.59
41.732	10.95	18.37	-0.06	7.59
41.762	11.26	18.68	-0.06	7.59
41.791	11.26	18.68	0.06	7.71
41.821	11.26	18.68	0.06	7.71
41.851	11.16	18.57	0.06	7.71
41.881	11.16	18.57	-0.09	7.57
41.910	11.16	18.57	-0.09	7.57
41.940	10.86	18.27	-0.09	7.57
41.970	10.86	18.27	0.03	7.68
42.000	10.86	18.27	0.03	7.68
42.030	11.13	18.54	0.03	7.68
42.059	11.13	18.54	-0.04	7.61
42.089	11.13	18.54	-0.04	7.61
42.119	11.23	18.64	-0.04	7.61
42.149	11.23	18.64	-0.05	7.60
42.178	11.23	18.64	-0.05	7.60
42.208	11.26	18.68	-0.05	7.60
42.238	11.26	18.68	0.06	7.71
42.268	11.26	18.68	0.06	7.71
42.297	11.38	18.79	0.06	7.71
42.327	11.38	18.79	-0.09	7.56
42.357	11.38	18.79	-0.09	7.56
42.387	11.11	18.52	-0.09	7.56
42.416	11.11	18.52	0.03	7.68
42.446	11.11	18.52	0.03	7.68
42.476	11.16	18.57	0.03	7.68
42.506	11.16	18.57	-0.04	7.61
42.536	11.16	18.57	-0.04	7.61
42.565	10.96	18.37	-0.04	7.61
42.595	10.96	18.37	-0.05	7.60
42.625	10.96	18.37	-0.05	7.60
42.655	11.27	18.68	-0.05	7.60
42.684	11.27	18.68	0.06	7.71
42.714	11.27	18.68	0.06	7.71
42.744	10.92	18.33	0.06	7.71
42.774	10.92	18.33	-0.09	7.56
42.803	10.92	18.33	-0.09	7.56
42.833	11.15	18.56	-0.09	7.56
42.863	11.15	18.56	0.03	7.68
42.893	11.15	18.56	0.03	7.68
42.922	11.09	18.50	0.03	7.68
42.952	11.09	18.50	-0.04	7.61
42.982	11.09	18.50	-0.04	7.61
43.012	11.13	18.54	-0.04	7.61
43.041	11.13	18.54	-0.04	7.61
43.071	11.13	18.54	-0.04	7.61
43.101	11.13	18.54	-0.04	7.61
43.131	11.13	18.54	0.06	7.71
43.161	11.13	18.54	0.06	7.71
43.190	10.95	18.36	0.06	7.71
43.220	10.95	18.36	-0.09	7.56
43.250	10.95	18.36	-0.09	7.56
43.280	11.36	18.77	-0.09	7.56
43.309	11.36	18.77	0.04	7.69
43.339	11.36	18.77	0.04	7.69
43.369	11.26	18.67	0.04	7.69
43.399	11.26	18.67	-0.04	7.61
43.428	11.26	18.67	-0.04	7.61
43.458	11.01	18.43	-0.04	7.61
43.488	11.01	18.43	-0.04	7.61
43.518	11.01	18.43	-0.04	7.61
43.547	10.78	18.19	-0.04	7.61
43.577	10.78	18.19	0.06	7.71
43.607	10.78	18.19	0.06	7.71
43.637	10.81	18.23	0.06	7.71
43.666	10.81	18.23	-0.10	7.55
43.696	10.81	18.23	-0.10	7.55
43.726	10.84	18.25	-0.10	7.55
43.756	10.84	18.25	0.04	7.69
43.786	10.84	18.25	0.04	7.69
43.815	10.86	18.27	0.04	7.69
43.845	10.86	18.27	-0.05	7.60
43.875	10.86	18.27	-0.05	7.60
43.905	11.10	18.51	-0.05	7.60
43.934	11.10	18.51	-0.03	7.62
43.964	11.10	18.51	-0.03	7.62
43.994	10.94	18.35	-0.03	7.62
44.024	10.94	18.35	0.05	7.70
44.053	10.94	18.35	0.05	7.70
44.083	11.04	18.45	0.05	7.70
44.113	11.04	18.45	-0.09	7.56
44.143	11.04	18.45	-0.09	7.56
44.172	10.85	18.26	-0.09	7.56
44.202	10.85	18.26	0.04	7.69
44.232	10.85	18.26	0.04	7.69
44.262	11.03	18.44	0.04	7.69
44.292	11.03	18.44	-0.05	7.60
44.321	11.03	18.44	-0.05	7.60
44.351	10.77	18.18	-0.05	7.60
44.381	10.77	18.18	-0.03	7.62
44.411	10.77	18.18	-0.03	7.62
44.440	10.86	18.27	-0.03	7.62
44.470	10.86	18.27	0.05	7.70
44.500	10.86	18.27	0.05	7.70
44.530	10.82	18.24	0.05	7.70
44.559	10.82	18.24	-0.09	7.56
44.589	10.82	18.24	-0.09	7.56
44.619	11.16	18.57	-0.09	7.56
44.649	11.16	18.57	0.04	7.69
44.678	11.16	18.57	0.04	7.69
44.708	11.21	18.62	0.04	7.69
44.738	11.21	18.62	-0.05	7.60
44.768	11.21	18.62	-0.05	7.60
44.797	10.95	18.36	-0.05	7.60
44.827	10.95	18.36	-0.02	7.63
44.857	10.95	18.36	-0.02	7.63
44.887	11.17	18.58	-0.02	7.63
44.917	11.17	18.58	0.05	7.70
44.946	11.17	18.58	0.05	7.70
44.976	11.11	18.52	0.05	7.70
45.006	11.11	18.52	-0.10	7.55
45.036	11.11	18.52	-0.10	7.55
45.065	10.97	18.38	-0.10	7.55
45.095	10.97	18.38	0.05	7.70
45.125	10.97	18.38	0.05	7.70
45.155	11.11	18.52	0.05	7.70
45.184	11.11	18.52	-0.05	7.60
45.214	11.11	18.52	-0.05	7.60
45.244	11.09	18.50	-0.05	7.60
45.274	11.09	18.50	-0.02	7.63
45.303	11.09	18.50	-0.02	7.63
45.333	11.05	18.46	-0.02	7.63
45.363	11.05	18.46	0.05	7.70
45.393	11.05	18.46	0.05	7.70
45.422	10.85	18.26	0.05	7.70
45.452	10.85	18.26	-0.10	7.55
45.482	10.85	18.26	-0.10	7.55
45.512	10.80	18.22	-0.10	7.55
45.542	10.80	18.22	0.05	7.70
45.571	10.80	18.22	0.05	7.70
45.601	11.40	18.81	0.05	7.70
45.631	11.40	18.81	-0.05	7.60
45.661	11.40	18.81	-0.05	7.60
45.690	11.45	18.86	-0.05	7.60
45.720	11.45	18.86	-0.01	7.64
45.750	11.45	18.86	-0.01	7.64
45.780	11.40	18.81	-0.01	7.64
45.809	11.40	18.81	0.04	7.69
45.839	11.40	18.81	0.04	7.69
45.869	11.49	18.90	0.04	7.69
45.899	11.49	18.90	-0.09	7.56
45.928	11.49	18.90	-0.09	7.56
45.958	11.40	18.81	-0.09	7.56
45.988	11.40	18.81	0.05	7.70
46.018	11.40	18.81	0.05	7.70
46.047	11.45	18.86	0.05	7.70
46.077	11.45	18.86	-0.05	7.60
46.107	11.45	18.86	-0.05	7.60
46.137	11.56	18.97	-0.05	7.60
46.167	11.56	18.97	-0.01	7.64
46.196	11.56	18.97	-0.01	7.64
46.226	11.48	18.89	-0.01	7.64
46.256	11.48	18.89	0.04	7.69
46.286	11.48	18.89	0.04	7.69
46.315	11.47	18.88	0.04	7.69
46.345	11.47	18.88	-0.09	7.56
46.375	11.47	18.88	-0.09	7.56
46.405	11.47	18.88	-0.09	7.56
46.434	11.47	18.88	0.05	7.70
46.464	11.47	18.88	0.05	7.70
46.494	11.51	18.92	0.05	7.70
46.524	11.51	18.92	-0.05	7.60
46.553	11.51	18.92	-0.05	7.60
46.583	11.43	18.84	-0.05	7.60
46.613	11.43	18.84	-0.01	7.64
46.643	11.43	18.84	-0.01	7.64
46.672	11.44	18.85	-0.01	7.64
46.702	11.44	18.85	0.04	7.69
46.732	11.44	18.85	0.04	7.69
46.762	11.36	18.77	0.04	7.69
46.792	11.36	18.77	-0.09	7.56
46.821	11.36	18.77	-0.09	7.56
46.851	11.38	18.79	-0.09	7.56
46.881	11.38	18.79	0.05	7.70
46.911	11.38	18.79	0.05	7.70
46.940	11.37	18.78	0.05	7.70
46.970	11.37	18.78	-0.06	7.59
47.000	11.37	18.78	-0.06	7.59
47.030	11.38	18.79	-0.06	7.59
47.059	11.38	18.79	-0.00	7.65
47.089	11.38	18.79	-0.00	7.65
47.119	11.34	18.75	-0.00	7.65
47.149	11.34	18.75	0.03	7.68
47.178	11.34	18.75	0.03	7.68
47.208	11.25	18.66	0.03	7.68
47.238	11.25	18.66	-0.09	7.56
47.268	11.25	18.66	-0.09	7.56
47.298	11.32	18.73	-0.09	7.56
47.327	11.32	18.73	0.05	7.70
47.357	11.32	18.73	0.05	7.70
47.387	11.20	18.61	0.05	7.70
47.417	11.20	18.61	-0.05	7.60
47.446	11.20	18.61	-0.05	7.60
47.476	11.23	18.64	-0.05	7.60
47.506	11.23	18.64	0.00	7.65
47.536	11.23	18.64	0.00	7.65
47.565	11.41	18.82	0.00	7.65
47.595	11.41	18.82	0.02	7.67
47.625	11.41	18.82	0.02	7.67
47.655	11.27	18.69	0.02	7.67
47.684	11.27	18.69	-0.09	7.56
47.714	11.27	18.69	-0.09	7.56
47.744	11.40	18.81	-0.09	7.56
47.774	11.40	18.81	0.05	7.70
47.803	11.40	18.81	0.05	7.70
47.833	11.38	18.79	0.05	7.70
47.863	11.38	18.79	-0.06	7.59
47.893	11.38	18.79	-0.06	7.59
47.923	11.35	18.77	-0.06	7.59
47.952	11.35	18.77	0.00	7.65
47.982	11.35	18.77	0.00	7.65
48.012	11.29	18.70	0.00	7.65
48.042	11.29	18.70	0.02	7.67
48.071	11.29	18.70	0.02	7.67
48.101	10.55	17.96	0.02	7.67
48.131	10.55	17.96	-0.09	7.56
48.161	10.55	17.96	-0.09	7.56
48.190	10.64	18.05	-0.09	7.56
48.220	10.64	18.05	0.05	7.70
48.250	10.64	18.05	0.05	7.70
48.280	10.63	18.04	0.05	7.70
48.309	10.63	18.04	-0.06	7.59
48.339	10.63	18.04	-0.06	7.59
48.369	10.74	18.15	-0.06	7.59
48.399	10.74	18.15	0.01	7.66
48.429	10.74	18.15	0.01	7.66
48.458	10.65	18.06	0.01	7.66
48.488	10.65	18.06	0.01	7.66
48.518	10.65	18.06	0.01	7.66
48.548	10.67	18.08	0.01	7.66
48.577	10.67	18.08	-0.09	7.56
48.607	10.67	18.08	-0.09	7.56
48.637	10.68	18.09	-0.09	7.56
48.667	10.68	18.09	0.06	7.71
48.696	10.68	18.09	0.06	7.71
48.726	11.20	18.61	0.06	7.71
48.756	11.20	18.61	-0.06	7.59
48.786	11.20	18.61	-0.06	7.59
48.815	11.15	18.56	-0.06	7.59
48.845	11.15	18.56	0.01	7.66
48.875	11.15	18.56	0.01	7.66
48.905	11.15	18.56	0.01	7.66
48.934	11.15	18.56	0.00	7.65
48.964	11.15	18.56	0.00	7.65
48.994	11.12	18.53	0.00	7.65
49.024	11.12	18.53	-0.09	7.56
49.054	11.12	18.53	-0.09	7.56
49.083	11.20	18.62	-0.09	7.56
49.113	11.20	18.62	0.06	7.71
49.143	11.20	18.62	0.06	7.71
49.173	11.08	18.49	0.06	7.71
49.202	11.08	18.49	-0.06	7.59
49.232	11.08	18.49	-0.06	7.59
49.262	11.19	18.60	-0.06	7.59
49.292	11.19	18.60	0.01	7.67
49.321	11.19	18.60	0.01	7.67
49.351	11.06	18.47	0.01	7.67
49.381	11.06	18.47	0.00	7.65
49.411	11.06	18.47	0.00	7.65
49.440	11.07	18.49	0.00	7.65
49.470	11.07	18.49	-0.09	7.56
49.500	11.07	18.49	-0.09	7.56
49.530	11.12	18.53	-0.09	7.56
49.559	11.12	18.53	0.06	7.71
49.589	11.12	18.53	0.06	7.71
49.619	11.20	18.61	0.06	7.71
49.649	11.20	18.61	-0.07	7.58
49.678	11.20	18.61	-0.07	7.58
49.708	11.26	18.67	-0.07	7.58
49.738	11.26	18.67	0.01	7.67
49.768	11.26	18.67	0.01	7.67
49.798	11.11	18.52	0.01	7.67
49.827	11.11	18.52	-0.01	7.64
49.857	11.11	18.52	-0.01	7.64
49.887	11.10	18.51	-0.01	7.64
49.917	11.10	18.51	-0.08	7.57
49.946	11.10	18.51	-0.08	7.57
49.976	11.29	18.70	-0.08	7.57
50.006	11.29	18.70	0.06	7.71
50.036	11.29	18.70	0.06	7.71
50.065	11.13	18.54	0.06	7.71
50.095	11.13	18.54	-0.07	7.58
50.125	11.13	18.54	-0.07	7.58
50.155	11.16	18.57	-0.07	7.58
50.184	11.16	18.57	0.02	7.67
50.214	11.16	18.57	0.02	7.67
50.244	11.08	18.49	0.02	7.67
50.274	11.08	18.49	-0.02	7.63
50.303	11.08	18.49	-0.02	7.63
50.333	11.31	18.72	-0.02	7.63
50.363	11.31	18.72	-0.08	7.57
50.393	11.31	18.72	-0.08	7.57
50.423	11.03	18.44	-0.08	7.57
50.452	11.03	18.44	0.06	7.71
50.482	11.03	18.44	0.06	7.71
50.512	11.02	18.43	0.06	7.71
50.542	11.02	18.43	-0.07	7.58
50.571	11.02	18.43	-0.07	7.58
50.601	10.98	18.39	-0.07	7.58
50.631	10.98	18.39	0.02	7.67
50.661	10.98	18.39	0.02	7.67
50.690	10.99	18.40	0.02	7.67
50.720	10.99	18.40	-0.02	7.63
50.750	10.99	18.40	-0.02	7.63
50.780	11.10	18.51	-0.02	7.63
50.809	11.10	18.51	-0.08	7.57
50.839	11.10	18.51	-0.08	7.57
50.869	11.31	18.72	-0.08	7.57
50.899	11.31	18.72	0.06	7.71
50.928	11.31	18.72	0.06	7.71
50.958	11.03	18.44	0.06	7.71
50.988	11.03	18.44	-0.08	7.57
51.018	11.03	18.44	-0.08	7.57
51.048	11.01	18.42	-0.08	7.57
51.077	11.01	18.42	0.02	7.67
51.107	11.01	18.42	0.02	7.67
51.137	11.24	18.65	0.02	7.67
51.167	11.24	18.65	-0.02	7.63
51.196	11.24	18.65	-0.02	7.63
51.226	11.07	18.48	-0.02	7.63
51.256	11.07	18.48	-0.07	7.58
51.286	11.07	18.48	-0.07	7.58
51.315	11.26	18.67	-0.07	7.58
51.345	11.26	18.67	0.06	7.71
51.375	11.26	18.67	0.06	7.71
51.405	11.04	18.45	0.06	7.71
51.434	11.04	18.45	-0.08	7.57
51.464	11.04	18.45	-0.08	7.57
51.494	10.95	18.37	-0.08	7.57
51.524	10.95	18.37	0.02	7.67
51.553	10.95	18.37	0.02	7.67
51.583	11.07	18.48	0.02	7.67
51.613	11.07	18.48	-0.03	7.62
51.643	11.07	18.48	-0.03	7.62
51.673	11.00	18.41	-0.03	7.62
51.702	11.00	18.41	-0.07	7.58
51.732	11.00	18.41	-0.07	7.58
51.762	10.91	18.32	-0.07	7.58
51.792	10.91	18.32	0.06	7.71
51.821	10.91	18.32	0.06	7.71
51.851	10.89	18.30	0.06	7.71
51.881	10.89	18.30	-0.08	7.57
51.911	10.89	18.30	-0.08	7.57
51.940	11.04	18.45	-0.08	7.57
51.970	11.04	18.45	0.02	7.67
52.000	11.04	18.45	0.02	7.67
52.030	10.94	18.35	0.02	7.67
52.059	10.94	18.35	-0.03	7.62
52.089	10.94	18.35	-0.03	7.62
52.119	10.95	18.37	-0.03	7.62
52.149	10.95	18.37	-0.06	7.59
52.179	10.95	18.37	-0.06	7.59
52.208	11.05	18.47	-0.06	7.59
52.238	11.05	18.47	0.06	7.71
52.268	11.05	18.47	0.06	7.71
52.298	11.06	18.47	0.06	7.71
52.327	11.06	18.47	-0.08	7.57
52.357	11.06	18.47	-0.08	7.57
52.387	10.87	18.29	-0.08	7.57
52.417	10.87	18.29	0.03	7.68
52.446	10.87	18.29	0.03	7.68
52.476	11.03	18.44	0.03	7.68
52.506	11.03	18.44	-0.03	7.62
52.536	11.03	18.44	-0.03	7.62
52.565	10.89	18.30	-0.03	7.62
52.595	10.89	18.30	-0.06	7.59
52.625	10.89	18.30	-0.06	7.59
52.655	10.95	18.36	-0.06	7.59
52.684	10.95	18.36	0.06	7.71
52.714	10.95	18.36	0.06	7.71
52.744	10.71	18.12	0.06	7.71
52.774	10.71	18.12	-0.09	7.57
52.804	10.71	18.12	-0.09	7.57
52.833	10.95	18.36	-0.09	7.57
52.863	10.95	18.36	0.03	7.68
52.893	10.95	18.36	0.03	7.68
52.923	10.93	18.34	0.03	7.68
52.952	10.93	18.34	-0.04	7.61
52.982	10.93	18.34	-0.04	7.61
53.012	10.79	18.20	-0.04	7.61
53.042	10.79	18.20	-0.05	7.60
53.071	10.79	18.20	-0.05	7.60
53.101	10.89	18.30	-0.05	7.60
53.131	10.89	18.30	0.06	7.71
53.161	10.89	18.30	0.06	7.71
53.190	10.82	18.23	0.06	7.71
53.220	10.82	18.23	-0.09	7.56
53.250	10.82	18.23	-0.09	7.56
53.280	10.72	18.13	-0.09	7.56
53.310	10.72	18.13	0.04	7.69
53.339	10.72	18.13	0.04	7.69
53.369	10.75	18.17	0.04	7.69
53.399	10.75	18.17	-0.04	7.61
53.429	10.75	18.17	-0.04	7.61
53.458	10.52	17.93	-0.04	7.61
53.488	10.52	17.93	-0.04	7.61
53.518	10.52	17.93	-0.04	7.61
53.548	10.85	18.27	-0.04	7.61
53.577	10.85	18.27	0.05	7.70
53.607	10.85	18.27	0.05	7.70
53.637	11.19	18.60	0.05	7.70
53.667	11.19	18.60	-0.09	7.56
53.696	11.19	18.60	-0.09	7.56
53.726	10.93	18.34	-0.09	7.56
53.756	10.93	18.34	0.03	7.68
53.786	10.93	18.34	0.03	7.68
53.815	10.73	18.14	0.03	7.68
53.845	10.73	18.14	-0.05	7.60
53.875	10.73	18.14	-0.05	7.60
53.905	10.88	18.29	-0.05	7.60
53.935	10.88	18.29	-0.04	7.61
53.964	10.88	18.29	-0.04	7.61
53.994	10.92	18.33	-0.04	7.61
54.024	10.92	18.33	0.05	7.70
54.054	10.92	18.33	0.05	7.70
54.083	10.79	18.20	0.05	7.70
54.113	10.79	18.20	-0.09	7.56
54.143	10.79	18.20	-0.09	7.56
54.173	11.07	18.49	-0.09	7.56
54.202	11.07	18.49	0.04	7.69
54.232	11.07	18.49	0.04	7.69
54.262	11.06	18.48	0.04	7.69
54.292	11.06	18.48	-0.05	7.60
54.321	11.06	18.48	-0.05	7.60
54.351	11.12	18.53	-0.05	7.60
54.381	11.12	18.53	-0.04	7.62
54.411	11.12	18.53	-0.04	7.62
54.440	11.13	18.54	-0.04	7.62
54.470	11.13	18.54	0.05	7.70
54.500	11.13	18.54	0.05	7.70
54.530	11.32	18.73	0.05	7.70
54.560	11.32	18.73	-0.09	7.56
54.589	11.32	18.73	-0.09	7.56
54.619	11.45	18.86	-0.09	7.56
54.649	11.45	18.86	0.04	7.69
54.679	11.45	18.86	0.04	7.69
54.708	11.56	18.97	0.04	7.69
54.738	11.56	18.97	-0.05	7.60
54.768	11.56	18.97	-0.05	7.60
54.798	11.43	18.84	-0.05	7.60
54.827	11.43	18.84	-0.03	7.62
54.857	11.43	18.84	-0.03	7.62
54.887	11.10	18.51	-0.03	7.62
54.917	11.10	18.51	0.05	7.70
54.946	11.10	18.51	0.05	7.70
54.976	11.46	18.88	0.05	7.70
55.006	11.46	18.88	-0.09	7.56
55.036	11.46	18.88	-0.09	7.56
55.065	11.50	18.92	-0.09	7.56
55.095	11.50	18.92	0.04	7.69
55.125	11.50	18.92	0.04	7.69
55.155	11.45	18.87	0.04	7.69
55.185	11.45	18.87	-0.05	7.60
55.214	11.45	18.87	-0.05	7.60
55.244	11.39	18.80	-0.05	7.60
55.274	11.39	18.80	-0.03	7.62
55.304	11.39	18.80	-0.03	7.62
55.333	11.41	18.83	-0.03	7.62
55.363	11.41	18.83	0.05	7.70
55.393	11.41	18.83	0.05	7.70
55.423	11.01	18.42	0.05	7.70
55.452	11.01	18.42	-0.09	7.56
55.482	11.01	18.42	-0.09	7.56
55.512	11.11	18.52	-0.09	7.56
55.542	11.11	18.52	0.05	7.70
55.571	11.11	18.52	0.05	7.70
55.601	10.99	18.40	0.05	7.70
55.631	10.99	18.40	-0.05	7.60
55.661	10.99	18.40	-0.05	7.60
55.690	11.22	18.63	-0.05	7.60
55.720	11.22	18.63	-0.02	7.63
55.750	11.22	18.63	-0.02	7.63
55.780	11.41	18.82	-0.02	7.63
55.810	11.41	18.82	0.05	7.70
55.839	11.41	18.82	0.05	7.70
55.869	11.16	18.57	0.05	7.70
55.899	11.16	18.57	-0.09	7.56
55.929	11.16	18.57	-0.09	7.56
55.958	11.17	18.58	-0.09	7.56
55.988	11.17	18.58	0.05	7.70
56.018	11.17	18.58	0.05	7.70
56.048	11.19	18.60	0.05	7.70
56.077	11.19	18.60	-0.05	7.60
56.107	11.19	18.60	-0.05	7.60
56.137	11.40	18.81	-0.05	7.60
56.167	11.40	18.81	-0.01	7.64
56.196	11.40	18.81	-0.01	7.64
56.226	11.32	18.73	-0.01	7.64
56.256	11.32	18.73	0.04	7.69
56.286	11.32	18.73	0.04	7.69
56.315	11.20	18.61	0.04	7.69
56.345	11.20	18.61	-0.09	7.56
56.375	11.20	18.61	-0.09	7.56
56.405	11.62	19.03	-0.09	7.56
56.434	11.62	19.03	0.05	7.70
56.464	11.62	19.03	0.05	7.70
56.494	11.61	19.02	0.05	7.70
56.524	11.61	19.02	-0.05	7.60
56.554	11.61	19.02	-0.05	7.60
56.583	11.59	19.00	-0.05	7.60
56.613	11.59	19.00	-0.01	7.64
56.643	11.59	19.00	-0.01	7.64
56.673	11.72	19.13	-0.01	7.64
56.702	11.72	19.13	0.04	7.69
56.732	11.72	19.13	0.04	7.69
56.762	11.45	18.86	0.04	7.69
56.792	11.45	18.86	-0.09	7.56
56.821	11.45	18.86	-0.09	7.56
56.851	11.58	18.99	-0.09	7.56
56.881	11.58	18.99	0.05	7.70
56.911	11.58	18.99	0.05	7.70
56.940	11.59	19.00	0.05	7.70
56.970	11.59	19.00	-0.05	7.60
57.000	11.59	19.00	-0.05	7.60
57.030	11.59	19.00	-0.05	7.60
57.059	11.59	19.00	-0.01	7.64
57.089	11.59	19.00	-0.01	7.64
57.119	11.65	19.06	-0.01	7.64
57.149	11.65	19.06	0.04	7.69
57.179	11.65	19.06	0.04	7.69
57.208	11.62	19.04	0.04	7.69
57.238	11.62	19.04	-0.09	7.56
57.268	11.62	19.04	-0.09	7.56
57.297	11.65	19.07	-0.09	7.56
57.327	11.65	19.07	0.05	7.70
57.357	11.65	19.07	0.05	7.70
57.387	11.62	19.03	0.05	7.70
57.416	11.62	19.03	-0.06	7.59
57.446	11.62	19.03	-0.06	7.59
57.476	11.64	19.05	-0.06	7.59
57.506	11.64	19.05	-0.01	7.64
57.535	11.64	19.05	-0.01	7.64
57.565	11.59	19.00	-0.01	7.64
57.595	11.59	19.00	0.03	7.68
57.625	11.59	19.00	0.03	7.68
57.655	11.58	18.99	0.03	7.68
57.684	11.58	18.99	-0.09	7.56
57.714	11.58	18.99	-0.09	7.56
57.744	11.49	18.90	-0.09	7.56
57.774	11.49	18.90	0.05	7.70
57.803	11.49	18.90	0.05	7.70
57.833	11.58	18.99	0.05	7.70
57.863	11.58	18.99	-0.05	7.60
57.893	11.58	18.99	-0.05	7.60
57.922	11.65	19.06	-0.05	7.60
57.952	11.65	19.06	-0.00	7.65
57.982	11.65	19.06	-0.00	7.65
58.012	11.58	18.99	-0.00	7.65
58.041	11.58	18.99	0.02	7.67
58.071	11.58	18.99	0.02	7.67
58.101	11.59	19.00	0.02	7.67
58.131	11.59	19.00	-0.09	7.56
58.160	11.59	19.00	-0.09	7.56
58.190	11.77	19.18	-0.09	7.56
58.220	11.77	19.18	0.06	7.71
58.250	11.77	19.18	0.06	7.71
58.279	11.70	19.11	0.06	7.71
58.309	11.70	19.11	-0.06	7.59
58.339	11.70	19.11	-0.06	7.59
58.369	11.81	19.22	-0.06	7.59
58.399	11.81	19.22	0.00	7.65
58.428	11.81	19.22	0.00	7.65
58.458	11.77	19.18	0.00	7.65
58.488	11.77	19.18	0.02	7.67
58.518	11.77	19.18	0.02	7.67
58.547	11.47	18.88	0.02	7.67
58.577	11.47	18.88	-0.09	7.56
58.607	11.47	18.88	-0.09	7.56
58.637	11.51	18.92	-0.09	7.56
58.666	11.51	18.92	0.05	7.70
58.696	11.51	18.92	0.05	7.70
58.726	11.52	18.93	0.05	7.70
58.756	11.52	18.93	-0.06	7.59
58.785	11.52	18.93	-0.06	7.59
58.815	11.54	18.95	-0.06	7.59
58.845	11.54	18.95	0.00	7.65
58.875	11.54	18.95	0.00	7.65
58.905	11.50	18.92	0.00	7.65
58.934	11.50	18.92	0.01	7.67
58.964	11.50	18.92	0.01	7.67
58.994	11.48	18.89	0.01	7.67
59.024	11.48	18.89	-0.09	7.56
59.053	11.48	18.89	-0.09	7.56
59.083	11.51	18.93	-0.09	7.56
59.113	11.51	18.93	0.05	7.70
59.143	11.51	18.93	0.05	7.70
59.172	11.49	18.90	0.05	7.70
59.202	11.49	18.90	-0.06	7.59
59.232	11.49	18.90	-0.06	7.59
59.262	11.11	18.52	-0.06	7.59
59.291	11.11	18.52	0.00	7.65
59.321	11.11	18.52	0.00	7.65
59.351	11.50	18.91	0.00	7.65
59.381	11.50	18.91	0.01	7.66
59.410	11.50	18.91	0.01	7.66
59.440	11.53	18.94	0.01	7.66
59.470	11.53	18.94	-0.09	7.56
59.500	11.53	18.94	-0.09	7.56
59.529	11.54	18.95	-0.09	7.56
59.559	11.54	18.95	0.06	7.71
59.589	11.54	18.95	0.06	7.71
59.619	11.52	18.93	0.06	7.71
59.649	11.52	18.93	-0.06	7.59
59.678	11.52	18.93	-0.06	7.59
59.708	11.50	18.91	-0.06	7.59
59.738	11.50	18.91	0.01	7.66
59.768	11.50	18.91	0.01	7.66
59.797	11.37	18.78	0.01	7.66
59.827	11.37	18.78	0.01	7.66
59.857	11.37	18.78	0.01	7.66
59.887	11.24	18.65	0.01	7.66
59.916	11.24	18.65	-0.09	7.56
59.946	11.24	18.65	-0.09	7.56
59.976	11.31	18.72	-0.09	7.56
60.006	11.31	18.72	0.05	7.70
60.035	11.31	18.72	0.05	7.70
60.065	11.09	18.50	0.05	7.70
60.095	11.09	18.50	-0.06	7.59
60.125	11.09	18.50	-0.06	7.59
60.155	11.22	18.63	-0.06	7.59
60.184	11.22	18.63	0.01	7.66
60.214	11.22	18.63	0.01	7.66
60.244	11.51	18.93	0.01	7.66
60.274	11.51	18.93	0.00	7.65
60.303	11.51	18.93	0.00	7.65
60.333	11.24	18.65	0.00	7.65
60.363	11.24	18.65	-0.09	7.56
60.393	11.24	18.65	-0.09	7.56
60.422	11.49	18.90	-0.09	7.56
60.452	11.49	18.90	0.06	7.71
60.482	11.49	18.90	0.06	7.71
60.512	11.44	18.85	0.06	7.71
60.541	11.44	18.85	-0.07	7.58
60.571	11.44	18.85	-0.07	7.58
60.601	11.45	18.86	-0.07	7.58
60.631	11.45	18.86	0.01	7.66
60.660	11.45	18.86	0.01	7.66
60.690	11.65	19.06	0.01	7.66
60.720	11.65	19.06	-0.00	7.65
60.750	11.65	19.06	-0.00	7.65
60.780	11.15	18.57	-0.00	7.65
60.809	11.15	18.57	-0.09	7.56
60.839	11.15	18.57	-0.09	7.56
60.869	11.48	18.89	-0.09	7.56
60.899	11.48	18.89	0.06	7.71
60.928	11.48	18.89	0.06	7.71
60.958	11.53	18.94	0.06	7.71
60.988	11.53	18.94	-0.07	7.58
61.018	11.53	18.94	-0.07	7.58
61.047	11.31	18.72	-0.07	7.58
61.077	11.31	18.72	0.01	7.66
61.107	11.31	18.72	0.01	7.66
61.137	11.40	18.81	0.01	7.66
61.166	11.40	18.81	-0.00	7.65
61.196	11.40	18.81	-0.00	7.65
61.226	11.29	18.70	-0.00	7.65
61.256	11.29	18.70	-0.09	7.56
61.285	11.29	18.70	-0.09	7.56
61.315	11.35	18.77	-0.09	7.56
61.345	11.35	18.77	0.06	7.71
61.375	11.35	18.77	0.06	7.71
61.405	11.36	18.77	0.06	7.71
61.434	11.36	18.77	-0.07	7.58
61.464	11.36	18.77	-0.07	7.58
61.494	11.30	18.71	-0.07	7.58
61.524	11.30	18.71	0.01	7.67
61.553	11.30	18.71	0.01	7.67
61.583	11.19	18.60	0.01	7.67
61.613	11.19	18.60	-0.01	7.64
61.643	11.19	18.60	-0.01	7.64
61.672	11.03	18.44	-0.01	7.64
61.702	11.03	18.44	-0.09	7.56
61.732	11.03	18.44	-0.09	7.56
61.762	10.84	18.25	-0.09	7.56
61.791	10.84	18.25	0.06	7.71
61.821	10.84	18.25	0.06	7.71
61.851	10.82	18.23	0.06	7.71
61.881	10.82	18.23	-0.07	7.58
61.910	10.82	18.23	-0.07	7.58
61.940	10.99	18.40	-0.07	7.58
61.970	10.99	18.40	0.01	7.66
62.000	10.99	18.40	0.01	7.66
62.030	10.87	18.29	0.01	7.66
62.059	10.87	18.29	-0.01	7.64
62.089	10.87	18.29	-0.01	7.64
62.119	10.84	18.25	-0.01	7.64
62.149	10.84	18.25	-0.08	7.57
62.178	10.84	18.25	-0.08	7.57
62.208	10.84	18.25	-0.08	7.57
62.238	10.84	18.25	0.06	7.71
62.268	10.84	18.25	0.06	7.71
62.297	10.84	18.25	0.06	7.71
62.327	10.84	18.25	-0.07	7.58
62.357	10.84	18.25	-0.07	7.58
62.387	11.02	18.43	-0.07	7.58
62.416	11.02	18.43	0.01	7.67
62.446	11.02	18.43	0.01	7.67
62.476	11.14	18.55	0.01	7.67
62.506	11.14	18.55	-0.01	7.64
62.535	11.14	18.55	-0.01	7.64
62.565	11.13	18.54	-0.01	7.64
62.595	11.13	18.54	-0.08	7.57
62.625	11.13	18.54	-0.08	7.57
62.654	11.20	18.61	-0.08	7.57
62.684	11.20	18.61	0.06	7.71
62.714	11.20	18.61	0.06	7.71
62.744	11.09	18.50	0.06	7.71
62.774	11.09	18.50	-0.07	7.58
62.803	11.09	18.50	-0.07	7.58
62.833	11.06	18.47	-0.07	7.58
62.863	11.06	18.47	0.02	7.67
62.893	11.06	18.47	0.02	7.67
62.922	11.09	18.50	0.02	7.67
62.952	11.09	18.50	-0.02	7.63
62.982	11.09	18.50	-0.02	7.63
63.012	11.09	18.50	-0.02	7.63
63.041	11.09	18.50	-0.08	7.57
63.071	11.09	18.50	-0.08	7.57
63.101	11.14	18.55	-0.08	7.57
63.131	11.14	18.55	0.06	7.71
63.160	11.14	18.55	0.06	7.71
63.190	11.13	18.54	0.06	7.71
63.220	11.13	18.54	-0.08	7.57
63.250	11.13	18.54	-0.08	7.57
63.280	11.22	18.63	-0.08	7.57
63.309	11.22	18.63	0.02	7.67
63.339	11.22	18.63	0.02	7.67
63.369	11.13	18.54	0.02	7.67
63.399	11.13	18.54	-0.02	7.63
63.428	11.13	18.54	-0.02	7.63
63.458	11.11	18.53	-0.02	7.63
63.488	11.11	18.53	-0.08	7.57
63.518	11.11	18.53	-0.08	7.57
63.547	11.13	18.54	-0.08	7.57
63.577	11.13	18.54	0.06	7.71
63.607	11.13	18.54	0.06	7.71
63.637	11.19	18.60	0.06	7.71
63.666	11.19	18.60	-0.08	7.57
63.696	11.19	18.60	-0.08	7.57
63.726	11.22	18.63	-0.08	7.57
63.756	11.22	18.63	0.02	7.67
63.785	11.22	18.63	0.02	7.67
63.815	11.20	18.61	0.02	7.67
63.845	11.20	18.61	-0.02	7.63
63.875	11.20	18.61	-0.02	7.63
63.905	11.16	18.57	-0.02	7.63
63.934	11.16	18.57	-0.07	7.58
63.964	11.16	18.57	-0.07	7.58
63.994	11.25	18.67	-0.07	7.58
64.024	11.25	18.67	0.05	7.70
64.053	11.25	18.67	0.05	7.70
64.083	11.18	18.59	0.05	7.70
64.113	11.18	18.59	-0.08	7.57
64.143	11.18	18.59	-0.08	7.57
64.172	11.02	18.43	-0.08	7.57
64.202	11.02	18.43	0.02	7.67
64.232	11.02	18.43	0.02	7.67
64.262	11.11	18.52	0.02	7.67
64.291	11.11	18.52	-0.03	7.62
64.321	11.11	18.52	-0.03	7.62
64.351	11.01	18.43	-0.03	7.62
64.381	11.01	18.43	-0.07	7.58
64.411	11.01	18.43	-0.07	7.58
64.440	10.85	18.27	-0.07	7.58
64.470	10.85	18.27	0.06	7.71
64.500	10.85	18.27	0.06	7.71
64.530	10.90	18.32	0.06	7.71
64.559	10.90	18.32	-0.08	7.57
64.589	10.90	18.32	-0.08	7.57
64.619	11.11	18.52	-0.08	7.57
64.649	11.11	18.52	0.02	7.67
64.678	11.11	18.52	0.02	7.67
64.708	11.38	18.79	0.02	7.67
64.738	11.38	18.79	-0.03	7.62
64.768	11.38	18.79	-0.03	7.62
64.797	11.06	18.47	-0.03	7.62
64.827	11.06	18.47	-0.06	7.59
64.857	11.06	18.47	-0.06	7.59
64.887	11.01	18.43	-0.06	7.59
64.916	11.01	18.43	0.06	7.71
64.946	11.01	18.43	0.06	7.71
64.976	11.14	18.55	0.06	7.71
65.006	11.14	18.55	-0.08	7.57
65.036	11.14	18.55	-0.08	7.57
65.065	11.22	18.63	-0.08	7.57
65.095	11.22	18.63	0.03	7.68
65.125	11.22	18.63	0.03	7.68
65.155	11.30	18.71	0.03	7.68
65.184	11.30	18.71	-0.04	7.62
65.214	11.30	18.71	-0.04	7.62
65.244	11.25	18.67	-0.04	7.62
65.274	11.25	18.67	-0.06	7.59
65.303	11.25	18.67	-0.06	7.59
65.333	11.21	18.62	-0.06	7.59
65.363	11.21	18.62	0.06	7.71
65.393	11.21	18.62	0.06	7.71
65.422	11.15	18.56	0.06	7.71
65.452	11.15	18.56	-0.09	7.56
65.482	11.15	18.56	-0.09	7.56
65.512	11.34	18.75	-0.09	7.56
65.541	11.34	18.75	0.03	7.68
65.571	11.34	18.75	0.03	7.68
65.601	11.19	18.60	0.03	7.68
65.631	11.19	18.60	-0.04	7.61
65.661	11.19	18.60	-0.04	7.61
65.690	10.98	18.39	-0.04	7.61
65.720	10.98	18.39	-0.05	7.60
65.750	10.98	18.39	-0.05	7.60
65.780	11.01	18.42	-0.05	7.60
65.809	11.01	18.42	0.06	7.71
65.839	11.01	18.42	0.06	7.71
65.869	11.00	18.42	0.06	7.71
65.899	11.00	18.42	-0.09	7.56
65.928	11.00	18.42	-0.09	7.56
65.958	11.20	18.61	-0.09	7.56
65.988	11.20	18.61	0.03	7.68
66.018	11.20	18.61	0.03	7.68
66.047	11.32	18.73	0.03	7.68
66.077	11.32	18.73	-0.04	7.61
66.107	11.32	18.73	-0.04	7.61
66.137	11.32	18.73	-0.04	7.61
66.167	11.32	18.73	-0.05	7.60
66.196	11.32	18.73	-0.05	7.60
66.226	11.37	18.78	-0.05	7.60
66.256	11.37	18.78	0.05	7.70
66.286	11.37	18.78	0.05	7.70
66.315	11.51	18.93	0.05	7.70
66.345	11.51	18.93	-0.09	7.56
66.375	11.51	18.93	-0.09	7.56
66.405	11.40	18.81	-0.09	7.56
66.434	11.40	18.81	0.03	7.68
66.464	11.40	18.81	0.03	7.68
66.494	11.49	18.90	0.03	7.68
66.524	11.49	18.90	-0.04	7.61
66.553	11.49	18.90	-0.04	7.61
66.583	11.40	18.81	-0.04	7.61
66.613	11.40	18.81	-0.04	7.61
66.643	11.40	18.81	-0.04	7.61
66.672	11.33	18.74	-0.04	7.61
66.702	11.33	18.74	0.06	7.71
66.732	11.33	18.74	0.06	7.71
66.762	11.28	18.69	0.06	7.71
66.792	11.28	18.69	-0.09	7.56
66.821	11.28	18.69	-0.09	7.56
66.851	11.33	18.74	-0.09	7.56
66.881	11.33	18.74	0.04	7.69
66.911	11.33	18.74	0.04	7.69
66.940	11.30	18.71	0.04	7.69
66.970	11.30	18.71	-0.04	7.61
67.000	11.30	18.71	-0.04	7.61
67.030	11.38	18.79	-0.04	7.61
67.059	11.38	18.79	-0.04	7.61
67.089	11.38	18.79	-0.04	7.61
67.119	11.40	18.82	-0.04	7.61
67.149	11.40	18.82	0.05	7.70
67.178	11.40	18.82	0.05	7.70
67.208	11.29	18.70	0.05	7.70
67.238	11.29	18.70	-0.09	7.56
67.268	11.29	18.70	-0.09	7.56
67.298	11.22	18.63	-0.09	7.56
67.327	11.22	18.63	0.04	7.69
67.357	11.22	18.63	0.04	7.69
67.387	11.27	18.68	0.04	7.69
67.417	11.27	18.68	-0.05	7.60
67.446	11.27	18.68	-0.05	7.60
67.476	11.32	18.73	-0.05	7.60
67.506	11.32	18.73	-0.04	7.62
67.536	11.32	18.73	-0.04	7.62
67.565	11.34	18.75	-0.04	7.62
67.595	11.34	18.75	0.05	7.70
67.625	11.34	18.75	0.05	7.70
67.655	11.34	18.75	0.05	7.70
67.684	11.34	18.75	-0.09	7.56
67.714	11.34	18.75	-0.09	7.56
67.744	11.34	18.75	-0.09	7.56
67.774	11.34	18.75	0.04	7.69
67.803	11.34	18.75	0.04	7.69
67.833	11.20	18.62	0.04	7.69
67.863	11.20	18.62	-0.05	7.60
67.893	11.20	18.62	-0.05	7.60
67.923	11.36	18.77	-0.05	7.60
67.952	11.36	18.77	-0.03	7.62
67.982	11.36	18.77	-0.03	7.62
68.012	11.63	19.04	-0.03	7.62
68.042	11.63	19.04	0.05	7.70
68.071	11.63	19.04	0.05	7.70
68.101	11.45	18.86	0.05	7.70
68.131	11.45	18.86	-0.09	7.56
68.161	11.45	18.86	-0.09	7.56
68.190	11.48	18.89	-0.09	7.56
68.220	11.48	18.89	0.04	7.69
68.250	11.48	18.89	0.04	7.69
68.280	11.59	19.00	0.04	7.69
68.309	11.59	19.00	-0.05	7.60
68.339	11.59	19.00	-0.05	7.60
68.369	11.53	18.94	-0.05	7.60
68.399	11.53	18.94	-0.02	7.63
68.428	11.53	18.94	-0.02	7.63
68.458	12.00	19.41	-0.02	7.63
68.488	12.00	19.41	0.05	7.70
68.518	12.00	19.41	0.05	7.70
68.548	11.98	19.39	0.05	7.70
68.577	11.98	19.39	-0.10	7.55
68.607	11.98	19.39	-0.10	7.55
68.637	11.96	19.37	-0.10	7.55
68.667	11.96	19.37	0.05	7.70
68.696	11.96	19.37	0.05	7.70
68.726	11.87	19.28	0.05	7.70
68.756	11.87	19.28	-0.05	7.60
68.786	11.87	19.28	-0.05	7.60
68.815	12.02	19.44	-0.05	7.60
68.845	12.02	19.44	-0.02	7.63
68.875	12.02	19.44	-0.02	7.63
68.905	12.05	19.47	-0.02	7.63
68.934	12.05	19.47	0.05	7.70
68.964	12.05	19.47	0.05	7.70
68.994	11.96	19.37	0.05	7.70
69.024	11.96	19.37	-0.09	7.56
69.054	11.96	19.37	-0.09	7.56
69.083	11.62	19.03	-0.09	7.56
69.113	11.62	19.03	0.05	7.70
69.143	11.62	19.03	0.05	7.70
69.173	11.61	19.02	0.05	7.70
69.202	11.61	19.02	-0.05	7.60
69.232	11.61	19.02	-0.05	7.60
69.262	11.79	19.20	-0.05	7.60
69.292	11.79	19.20	-0.01	7.64
69.321	11.79	19.20	-0.01	7.64
69.351	11.90	19.31	-0.01	7.64
69.381	11.90	19.31	0.04	7.69
69.411	11.90	19.31	0.04	7.69
69.440	11.92	19.33	0.04	7.69
69.470	11.92	19.33	-0.09	7.56
69.500	11.92	19.33	-0.09	7.56
69.530	11.98	19.39	-0.09	7.56
69.559	11.98	19.39	0.05	7.70
69.589	11.98	19.39	0.05	7.70
69.619	11.86	19.27	0.05	7.70
69.649	11.86	19.27	-0.05	7.60
69.679	11.86	19.27	-0.05	7.60
69.708	11.89	19.30	-0.05	7.60
69.738	11.89	19.30	-0.01	7.64
69.768	11.89	19.30	-0.01	7.64
69.798	11.90	19.31	-0.01	7.64
69.827	11.90	19.31	0.04	7.69
69.857	11.90	19.31	0.04	7.69
69.887	11.81	19.22	0.04	7.69
69.917	11.81	19.22	-0.09	7.56
69.946	11.81	19.22	-0.09	7.56
69.976	11.91	19.32	-0.09	7.56
70.006	11.91	19.32	0.05	7.70
70.036	11.91	19.32	0.05	7.70
70.065	11.72	19.13	0.05	7.70
70.095	11.72	19.13	-0.05	7.60
70.125	11.72	19.13	-0.05	7.60
70.155	11.56	18.97	-0.05	7.60
70.184	11.56	18.97	-0.00	7.65
70.214	11.56	18.97	-0.00	7.65
70.244	11.63	19.04	-0.00	7.65
70.274	11.63	19.04	0.04	7.69
70.304	11.63	19.04	0.04	7.69
70.333	11.45	18.86	0.04	7.69
70.363	11.45	18.86	-0.09	7.56
70.393	11.45	18.86	-0.09	7.56
70.423	11.54	18.95	-0.09	7.56
70.452	11.54	18.95	0.05	7.70
70.482	11.54	18.95	0.05	7.70
70.512	11.51	18.92	0.05	7.70
70.542	11.51	18.92	-0.06	7.59
70.571	11.51	18.92	-0.06	7.59
70.601	11.50	18.92	-0.06	7.59
70.631	11.50	18.92	-0.00	7.65
70.661	11.50	18.92	-0.00	7.65
70.690	11.54	18.95	-0.00	7.65
70.720	11.54	18.95	0.03	7.68
70.750	11.54	18.95	0.03	7.68
70.780	11.53	18.94	0.03	7.68
70.809	11.53	18.94	-0.09	7.56
70.839	11.53	18.94	-0.09	7.56
70.869	11.48	18.89	-0.09	7.56
70.899	11.48	18.89	0.05	7.70
70.929	11.48	18.89	0.05	7.70
70.958	11.44	18.85	0.05	7.70
70.988	11.44	18.85	-0.06	7.59
71.018	11.44	18.85	-0.06	7.59
71.048	11.55	18.96	-0.06	7.59
71.077	11.55	18.96	0.00	7.65
71.107	11.55	18.96	0.00	7.65
71.137	11.80	19.21	0.00	7.65
71.167	11.80	19.21	0.02	7.67
71.196	11.80	19.21	0.02	7.67
71.226	11.35	18.77	0.02	7.67
71.256	11.35	18.77	-0.09	7.56
71.286	11.35	18.77	-0.09	7.56
71.315	11.41	18.82	-0.09	7.56
71.345	11.41	18.82	0.05	7.70
71.375	11.41	18.82	0.05	7.70
71.405	11.30	18.71	0.05	7.70
71.434	11.30	18.71	-0.06	7.59
71.464	11.30	18.71	-0.06	7.59
71.494	11.47	18.89	-0.06	7.59
71.524	11.47	18.89	0.00	7.65
71.553	11.47	18.89	0.00	7.65
71.583	11.56	18.98	0.00	7.65
71.613	11.56	18.98	0.01	7.66
71.643	11.56	18.98	0.01	7.66
71.672	11.54	18.95	0.01	7.66
71.702	11.54	18.95	-0.09	7.56
71.732	11.54	18.95	-0.09	7.56
71.762	11.64	19.05	-0.09	7.56
71.791	11.64	19.05	0.05	7.70
71.821	11.64	19.05	0.05	7.70
71.851	11.39	18.80	0.05	7.70
71.881	11.39	18.80	-0.06	7.59
71.911	11.39	18.80	-0.06	7.59
71.940	11.64	19.05	-0.06	7.59
71.970	11.64	19.05	0.01	7.66
72.000	11.64	19.05	0.01	7.66
72.030	11.71	19.13	0.01	7.66
72.059	11.71	19.13	0.01	7.66
72.089	11.71	19.13	0.01	7.66
72.119	11.50	18.91	0.01	7.66
72.149	11.50	18.91	-0.09	7.56
72.178	11.50	18.91	-0.09	7.56
72.208	11.61	19.02	-0.09	7.56
72.238	11.61	19.02	0.05	7.70
72.268	11.61	19.02	0.05	7.70
72.297	11.70	19.11	0.05	7.70
72.327	11.70	19.11	-0.06	7.59
72.357	11.70	19.11	-0.06	7.59
72.387	11.61	19.02	-0.06	7.59
72.416	11.61	19.02	0.01	7.66
72.446	11.61	19.02	0.01	7.66
72.476	11.55	18.96	0.01	7.66
72.506	11.55	18.96	0.00	7.65
72.536	11.55	18.96	0.00	7.65
72.565	11.63	19.04	0.00	7.65
72.595	11.63	19.04	-0.09	7.56
72.625	11.63	19.04	-0.09	7.56
72.654	11.60	19.01	-0.09	7.56
72.684	11.60	19.01	0.05	7.70
72.714	11.60	19.01	0.05	7.70
72.744	11.58	18.99	0.05	7.70
72.773	11.58	18.99	-0.06	7.59
72.803	11.58	18.99	-0.06	7.59
72.833	11.73	19.14	-0.06	7.59
72.863	11.73	19.14	0.01	7.66
72.893	11.73	19.14	0.01	7.66
72.922	11.57	18.98	0.01	7.66
72.952	11.57	18.98	-0.00	7.65
72.982	11.57	18.98	-0.00	7.65
73.012	11.45	18.86	-0.00	7.65
73.041	11.45	18.86	-0.09	7.56
73.071	11.45	18.86	-0.09	7.56
73.101	11.53	18.94	-0.09	7.56
73.131	11.53	18.94	0.06	7.71
73.160	11.53	18.94	0.06	7.71
73.190	11.61	19.02	0.06	7.71
73.220	11.61	19.02	-0.07	7.58
73.250	11.61	19.02	-0.07	7.58
73.279	11.61	19.02	-0.07	7.58
73.309	11.61	19.02	0.01	7.66
73.339	11.61	19.02	0.01	7.66
73.369	11.59	19.00	0.01	7.66
73.398	11.59	19.00	-0.01	7.64
73.428	11.59	19.00	-0.01	7.64
73.458	11.66	19.07	-0.01	7.64
73.488	11.66	19.07	-0.08	7.57
73.518	11.66	19.07	-0.08	7.57
73.547	11.76	19.18	-0.08	7.57
73.577	11.76	19.18	0.06	7.71
73.607	11.76	19.18	0.06	7.71
73.637	11.69	19.10	0.06	7.71
73.666	11.69	19.10	-0.07	7.58
73.696	11.69	19.10	-0.07	7.58
73.726	11.59	19.00	-0.07	7.58
73.756	11.59	19.00	0.01	7.67
73.785	11.59	19.00	0.01	7.67
73.815	11.65	19.06	0.01	7.67
73.845	11.65	19.06	-0.01	7.64
73.875	11.65	19.06	-0.01	7.64
73.904	11.78	19.19	-0.01	7.64
73.934	11.78	19.19	-0.08	7.57
73.964	11.78	19.19	-0.08	7.57
73.994	11.64	19.05	-0.08	7.57
74.024	11.64	19.05	0.06	7.71
74.053	11.64	19.05	0.06	7.71
74.083	11.53	18.94	0.06	7.71
74.113	11.53	18.94	-0.07	7.58
74.143	11.53	18.94	-0.07	7.58
74.172	11.60	19.01	-0.07	7.58
74.202	11.60	19.01	0.02	7.67
74.232	11.60	19.01	0.02	7.67
74.262	11.54	18.95	0.02	7.67
74.291	11.54	18.95	-0.02	7.63
74.321	11.54	18.95	-0.02	7.63
74.351	11.24	18.65	-0.02	7.63
74.381	11.24	18.65	-0.08	7.57
74.410	11.24	18.65	-0.08	7.57
74.440	11.54	18.95	-0.08	7.57
74.470	11.54	18.95	0.06	7.71
74.500	11.54	18.95	0.06	7.71
74.529	11.51	18.93	0.06	7.71
74.559	11.51	18.93	-0.07	7.58
74.589	11.51	18.93	-0.07	7.58
74.619	11.51	18.92	-0.07	7.58
74.648	11.51	18.92	0.01	7.66
74.678	11.51	18.92	0.01	7.66
74.708	11.60	19.01	0.01	7.66
74.738	11.60	19.01	-0.02	7.63
74.768	11.60	19.01	-0.02	7.63
74.797	11.60	19.02	-0.02	7.63
74.827	11.60	19.02	-0.08	7.57
74.857	11.60	19.02	-0.08	7.57
74.887	11.72	19.13	-0.08	7.57
74.916	11.72	19.13	0.06	7.71
74.946	11.72	19.13	0.06	7.71
74.976	11.69	19.10	0.06	7.71
75.006	11.69	19.10	-0.08	7.57
75.035	11.69	19.10	-0.08	7.57
75.065	11.68	19.09	-0.08	7.57
75.095	11.68	19.09	0.02	7.67
75.125	11.68	19.09	0.02	7.67
75.154	11.67	19.09	0.02	7.67
75.184	11.67	19.09	-0.03	7.62
75.214	11.67	19.09	-0.03	7.62
75.244	11.57	18.98	-0.03	7.62
75.273	11.57	18.98	-0.07	7.58
75.303	11.57	18.98	-0.07	7.58
75.333	11.63	19.04	-0.07	7.58
75.363	11.63	19.04	0.06	7.71
75.393	11.63	19.04	0.06	7.71
75.422	11.48	18.89	0.06	7.71
75.452	11.48	18.89	-0.08	7.57
75.482	11.48	18.89	-0.08	7.57
75.512	11.38	18.79	-0.08	7.57
75.541	11.38	18.79	0.02	7.67
75.571	11.38	18.79	0.02	7.67
75.601	11.38	18.79	0.02	7.67
75.631	11.38	18.79	-0.03	7.62
75.660	11.38	18.79	-0.03	7.62
75.690	11.54	18.95	-0.03	7.62
75.720	11.54	18.95	-0.07	7.58
75.750	11.54	18.95	-0.07	7.58
75.779	11.43	18.84	-0.07	7.58
75.809	11.43	18.84	0.06	7.71
75.839	11.43	18.84	0.06	7.71
75.869	11.43	18.84	0.06	7.71
75.898	11.43	18.84	-0.08	7.57
75.928	11.43	18.84	-0.08	7.57
75.958	11.49	18.90	-0.08	7.57
75.988	11.49	18.90	0.02	7.67
76.017	11.49	18.90	0.02	7.67
76.047	11.15	18.56	0.02	7.67
76.077	11.15	18.56	-0.03	7.62
76.107	11.15	18.56	-0.03	7.62
76.137	2.60	10.01	-0.03	7.62
76.166	2.60	10.01	-0.07	7.58
76.196	2.60	10.01	-0.07	7.58
76.226	-1.18	6.23	-0.07	7.58
76.256	-1.18	6.23	0.06	7.71
76.285	-1.18	6.23	0.06	7.71
76.315	-0.59	6.82	0.06	7.71
76.345	-0.59	6.82	-0.09	7.56
76.375	-0.59	6.82	-0.09	7.56
76.404	0.26	7.67	-0.09	7.56
76.434	0.26	7.67	0.02	7.67
76.464	0.26	7.67	0.02	7.67
76.494	0.67	8.08	0.02	7.67
76.524	0.67	8.08	-0.04	7.61
76.553	0.67	8.08	-0.04	7.61
76.583	0.26	7.67	-0.04	7.61
76.613	0.26	7.67	-0.06	7.59
76.643	0.26	7.67	-0.06	7.59
76.672	0.01	7.42	-0.06	7.59
76.702	0.01	7.42	0.06	7.71
76.732	0.01	7.42	0.06	7.71
76.762	-0.07	7.34	0.06	7.71
76.792	-0.07	7.34	-0.09	7.56
76.821	-0.07	7.34	-0.09	7.56
76.851	0.24	7.65	-0.09	7.56
76.881	0.24	7.65	0.02	7.67
76.911	0.24	7.65	0.02	7.67
76.940	0.31	7.72	0.02	7.67
76.970	0.31	7.72	-0.04	7.61
77.000	0.31	7.72	-0.04	7.61
77.030	0.14	7.55	-0.04	7.61
77.060	0.14	7.55	-0.06	7.59
77.089	0.14	7.55	-0.06	7.59
77.119	0.22	7.63	-0.06	7.59
77.149	0.22	7.63	0.06	7.71
77.179	0.22	7.63	0.06	7.71
77.208	0.05	7.46	0.06	7.71
77.238	0.05	7.46	-0.09	7.56
77.268	0.05	7.46	-0.09	7.56
77.298	0.21	7.62	-0.09	7.56
77.328	0.21	7.62	0.02	7.67
77.357	0.21	7.62	0.02	7.67
77.387	0.21	7.63	0.02	7.67
77.417	0.21	7.63	-0.04	7.62
77.447	0.21	7.63	-0.04	7.62
77.476	0.10	7.51	-0.04	7.62
77.506	0.10	7.51	-0.06	7.59
77.536	0.10	7.51	-0.06	7.59
77.566	0.26	7.67	-0.06	7.59
77.596	0.26	7.67	0.05	7.70
77.625	0.26	7.67	0.05	7.70
77.655	0.08	7.49	0.05	7.70
77.685	0.08	7.49	-0.10	7.55
77.715	0.08	7.49	-0.10	7.55
77.744	0.20	7.61	-0.10	7.55
77.774	0.20	7.61	0.02	7.67
77.804	0.20	7.61	0.02	7.67
77.834	0.19	7.60	0.02	7.67
77.864	0.19	7.60	-0.04	7.61
77.893	0.19	7.60	-0.04	7.61
77.923	0.09	7.50	-0.04	7.61
77.953	0.09	7.50	-0.06	7.59
77.983	0.09	7.50	-0.06	7.59
78.012	0.26	7.67	-0.06	7.59
78.042	0.26	7.67	0.06	7.71
78.072	0.26	7.67	0.06	7.71
78.102	0.07	7.48	0.06	7.71
78.132	0.07	7.48	-0.09	7.56
78.161	0.07	7.48	-0.09	7.56
78.191	0.19	7.60	-0.09	7.56
78.221	0.19	7.60	0.03	7.68
78.251	0.19	7.60	0.03	7.68
78.280	0.18	7.59	0.03	7.68
78.310	0.18	7.59	-0.04	7.61
78.340	0.18	7.59	-0.04	7.61
78.370	0.10	7.51	-0.04	7.61
78.400	0.10	7.51	-0.05	7.60
78.429	0.10	7.51	-0.05	7.60
78.459	0.28	7.69	-0.05	7.60
78.489	0.28	7.69	0.05	7.70
78.519	0.28	7.69	0.05	7.70
78.548	0.08	7.49	0.05	7.70
78.578	0.08	7.49	-0.10	7.55
78.608	0.08	7.49	-0.10	7.55
78.638	0.21	7.62	-0.10	7.55
78.668	0.21	7.62	0.03	7.68
78.697	0.21	7.62	0.03	7.68
78.727	0.20	7.61	0.03	7.68
78.757	0.20	7.61	-0.04	7.61
78.787	0.20	7.61	-0.04	7.61
78.816	0.11	7.52	-0.04	7.61
78.846	0.11	7.52	-0.05	7.60
78.876	0.11	7.52	-0.05	7.60
78.906	0.28	7.69	-0.05	7.60
78.936	0.28	7.69	0.05	7.70
78.965	0.28	7.69	0.05	7.70
78.995	0.08	7.49	0.05	7.70
79.025	0.08	7.49	-0.09	7.56
79.055	0.08	7.49	-0.09	7.56
79.084	0.20	7.62	-0.09	7.56
79.114	0.20	7.62	0.03	7.68
79.144	0.20	7.62	0.03	7.68
79.174	0.19	7.60	0.03	7.68
79.204	0.19	7.60	-0.04	7.61
79.233	0.19	7.60	-0.04	7.61
79.263	0.10	7.52	-0.04	7.61
79.293	0.10	7.52	-0.05	7.60
79.323	0.10	7.52	-0.05	7.60
79.352	0.28	7.69	-0.05	7.60
79.382	0.28	7.69	0.05	7.70
79.412	0.28	7.69	0.05	7.70
79.442	0.08	7.49	0.05	7.70
79.472	0.08	7.49	-0.10	7.55
79.501	0.08	7.49	-0.10	7.55
79.531	0.21	7.62	-0.10	7.55
79.561	0.21	7.62	0.03	7.68
79.591	0.21	7.62	0.03	7.68
79.620	0.19	7.60	0.03	7.68
79.650	0.19	7.60	-0.04	7.61
79.680	0.19	7.60	-0.04	7.61
79.710	0.11	7.52	-0.04	7.61
79.740	0.11	7.52	-0.05	7.60
79.769	0.11	7.52	-0.05	7.60
79.799	0.28	7.69	-0.05	7.60
79.829	0.28	7.69	0.05	7.70
79.859	0.28	7.69	0.05	7.70
79.888	0.07	7.48	0.05	7.70
79.918	0.07	7.48	-0.10	7.55
