Tempo(s)    P0(KPa) P0+Coluna(KPa)  P1(KPa) P1+Coluna(KPa)
0.003	-2.22	-2.22	-2.22	-2.22
0.030	-2.22	-2.22	-2.22	-2.22
0.060	6.75	6.75	-2.22	-2.22
0.090	6.75	6.75	7.57	7.57
0.120	6.75	6.75	7.57	7.57
0.149	6.82	6.82	7.57	7.57
0.179	6.82	6.82	7.69	7.69
0.209	6.82	6.82	7.69	7.69
0.239	6.70	6.70	7.69	7.69
0.269	6.70	6.70	7.57	7.57
0.298	6.70	6.70	7.57	7.57
0.328	6.65	6.65	7.57	7.57
0.358	6.65	6.65	7.65	7.65
0.388	6.65	6.65	7.65	7.65
0.418	6.68	6.68	7.65	7.65
0.447	6.68	6.68	7.63	7.63
0.477	6.68	6.68	7.63	7.63
0.507	6.60	6.60	7.63	7.63
0.537	6.60	6.60	7.56	7.56
0.566	6.60	6.60	7.56	7.56
0.596	6.73	6.73	7.56	7.56
0.626	0.00	6.73	0.13	7.69
0.656	0.00	6.73	0.13	7.69
0.685	-0.09	6.64	0.13	7.69
0.715	-0.09	6.64	0.00	7.56
0.745	-0.09	6.64	0.00	7.56
0.775	-0.01	6.73	0.00	7.56
0.804	-0.01	6.73	0.10	7.66
0.834	-0.01	6.73	0.10	7.66
0.864	-0.05	6.68	0.10	7.66
0.894	-0.05	6.68	0.06	7.62
0.924	-0.05	6.68	0.06	7.62
0.953	-0.10	6.63	0.06	7.62
0.983	-0.10	6.63	-0.02	7.54
1.013	-0.10	6.63	-0.02	7.54
1.043	0.02	6.76	-0.02	7.54
1.072	0.02	6.76	0.14	7.70
1.102	0.02	6.76	0.14	7.70
1.132	-0.10	6.63	0.14	7.70
1.162	-0.10	6.63	0.01	7.57
1.192	-0.10	6.63	0.01	7.57
1.221	-0.10	6.64	0.01	7.57
1.251	-0.10	6.64	0.09	7.65
1.281	-0.10	6.64	0.09	7.65
1.311	-0.04	6.69	0.09	7.65
1.341	-0.04	6.69	0.06	7.62
1.370	-0.04	6.69	0.06	7.62
1.400	-0.14	6.59	0.06	7.62
1.430	-0.14	6.59	-0.01	7.55
1.460	-0.14	6.59	-0.01	7.55
1.489	0.01	6.74	-0.01	7.55
1.519	0.01	6.74	0.14	7.70
1.549	0.01	6.74	0.14	7.70
1.579	-0.08	6.65	0.14	7.70
1.609	-0.08	6.65	-0.00	7.55
1.638	-0.08	6.65	-0.00	7.55
1.668	0.00	6.74	-0.00	7.55
1.698	0.00	6.74	0.10	7.66
1.728	0.00	6.74	0.10	7.66
1.758	-0.01	6.72	0.10	7.66
1.787	-0.01	6.72	0.06	7.62
1.817	-0.01	6.72	0.06	7.62
1.847	-0.12	6.62	0.06	7.62
1.877	-0.12	6.62	-0.00	7.56
1.906	-0.12	6.62	-0.00	7.56
1.936	-0.01	6.72	-0.00	7.56
1.966	-0.01	6.72	0.14	7.70
1.996	-0.01	6.72	0.14	7.70
2.025	-0.15	6.58	0.14	7.70
2.055	-0.15	6.58	-0.01	7.55
2.085	-0.15	6.58	-0.01	7.55
2.115	-0.13	6.60	-0.01	7.55
2.145	-0.13	6.60	0.09	7.65
2.174	-0.13	6.60	0.09	7.65
2.204	-0.09	6.65	0.09	7.65
2.234	-0.09	6.65	0.05	7.60
2.264	-0.09	6.65	0.05	7.60
2.294	-0.14	6.59	0.05	7.60
2.323	-0.14	6.59	0.01	7.57
2.353	-0.14	6.59	0.01	7.57
2.383	0.01	6.74	0.01	7.57
2.413	0.01	6.74	0.14	7.70
2.442	0.01	6.74	0.14	7.70
2.472	-0.11	6.62	0.14	7.70
2.502	-0.11	6.62	-0.01	7.55
2.532	-0.11	6.62	-0.01	7.55
2.562	-0.09	6.65	-0.01	7.55
2.591	-0.09	6.65	0.11	7.67
2.621	-0.09	6.65	0.11	7.67
2.651	-0.06	6.68	0.11	7.67
2.681	-0.06	6.68	0.04	7.60
2.710	-0.06	6.68	0.04	7.60
2.740	-0.20	6.54	0.04	7.60
2.770	-0.20	6.54	0.02	7.58
2.800	-0.20	6.54	0.02	7.58
2.830	0.01	6.75	0.02	7.58
2.859	0.01	6.75	0.14	7.70
2.889	0.01	6.75	0.14	7.70
2.919	-0.14	6.59	0.14	7.70
2.949	-0.14	6.59	-0.01	7.55
2.979	-0.14	6.59	-0.01	7.55
3.008	0.00	6.73	-0.01	7.55
3.038	0.00	6.73	0.11	7.67
3.068	0.00	6.73	0.11	7.67
3.098	2.57	9.30	0.11	7.67
3.127	2.57	9.30	0.04	7.60
3.157	2.57	9.30	0.04	7.60
3.187	14.53	21.26	0.04	7.60
3.217	14.53	21.26	0.04	7.60
3.246	14.53	21.26	0.04	7.60
3.276	18.13	24.87	0.04	7.60
3.306	18.13	24.87	0.14	7.70
3.336	18.13	24.87	0.14	7.70
3.366	16.07	22.81	0.14	7.70
3.395	16.07	22.81	-0.01	7.54
3.425	16.07	22.81	-0.01	7.54
3.455	15.51	22.24	-0.01	7.54
3.485	15.51	22.24	0.12	7.68
3.514	15.51	22.24	0.12	7.68
3.544	15.50	22.23	0.12	7.68
3.574	15.50	22.23	0.03	7.59
3.604	15.50	22.23	0.03	7.59
3.633	15.38	22.12	0.03	7.59
3.663	15.38	22.12	0.05	7.60
3.693	15.38	22.12	0.05	7.60
3.723	15.54	22.27	0.05	7.60
3.753	15.54	22.27	0.14	7.69
3.782	15.54	22.27	0.14	7.69
3.812	15.64	22.37	0.14	7.69
3.842	15.64	22.37	-0.01	7.54
3.872	15.64	22.37	-0.01	7.54
3.901	15.60	22.33	-0.01	7.54
3.931	15.60	22.33	0.12	7.68
3.961	15.60	22.33	0.12	7.68
3.991	15.75	22.48	0.12	7.68
4.020	15.75	22.48	0.03	7.59
4.050	15.75	22.48	0.03	7.59
4.080	15.85	22.59	0.03	7.59
4.110	15.85	22.59	0.06	7.62
4.140	15.85	22.59	0.06	7.62
4.169	16.03	22.77	0.06	7.62
4.199	16.03	22.77	0.13	7.69
4.229	16.03	22.77	0.13	7.69
4.259	16.02	22.75	0.13	7.69
4.288	16.02	22.75	-0.02	7.54
4.318	16.02	22.75	-0.02	7.54
4.348	15.90	22.64	-0.02	7.54
4.378	15.90	22.64	0.13	7.68
4.407	15.90	22.64	0.13	7.68
4.437	15.76	22.50	0.13	7.68
4.467	15.76	22.50	0.03	7.59
4.497	15.76	22.50	0.03	7.59
4.527	15.85	22.58	0.03	7.59
4.556	15.85	22.58	0.07	7.63
4.586	15.85	22.58	0.07	7.63
4.616	16.00	22.73	0.07	7.63
4.646	16.00	22.73	0.12	7.68
4.675	16.00	22.73	0.12	7.68
4.705	15.95	22.69	0.12	7.68
4.735	15.95	22.69	-0.01	7.54
4.765	15.95	22.69	-0.01	7.54
4.794	15.98	22.72	-0.01	7.54
4.824	15.98	22.72	0.13	7.69
4.854	15.98	22.72	0.13	7.69
4.884	15.89	22.63	0.13	7.69
4.914	15.89	22.63	0.03	7.59
4.943	15.89	22.63	0.03	7.59
4.973	15.92	22.66	0.03	7.59
5.003	15.92	22.66	0.07	7.63
5.033	15.92	22.66	0.07	7.63
5.062	16.11	22.84	0.07	7.63
5.092	16.11	22.84	0.11	7.67
5.122	16.11	22.84	0.11	7.67
5.152	16.06	22.79	0.11	7.67
5.182	16.06	22.79	-0.01	7.55
5.211	16.06	22.79	-0.01	7.55
5.241	16.09	22.82	-0.01	7.55
5.271	16.09	22.82	0.13	7.69
5.301	16.09	22.82	0.13	7.69
5.330	15.89	22.62	0.13	7.69
5.360	15.89	22.62	0.02	7.58
5.390	15.89	22.62	0.02	7.58
5.420	16.07	22.81	0.02	7.58
5.449	16.07	22.81	0.08	7.64
5.479	16.07	22.81	0.08	7.64
5.509	16.06	22.79	0.08	7.64
5.539	16.06	22.79	0.10	7.66
5.569	16.06	22.79	0.10	7.66
5.598	16.21	22.94	0.10	7.66
5.628	16.21	22.94	-0.01	7.55
5.658	16.21	22.94	-0.01	7.55
5.688	16.05	22.79	-0.01	7.55
5.717	16.05	22.79	0.14	7.70
5.747	16.05	22.79	0.14	7.70
5.777	16.11	22.85	0.14	7.70
5.807	16.11	22.85	0.01	7.57
5.836	16.11	22.85	0.01	7.57
5.866	15.92	22.65	0.01	7.57
5.896	15.92	22.65	0.08	7.64
5.926	15.92	22.65	0.08	7.64
5.956	16.20	22.93	0.08	7.64
5.985	16.20	22.93	0.10	7.65
6.015	16.20	22.93	0.10	7.65
6.045	16.12	22.85	0.10	7.65
6.075	16.12	22.85	-0.01	7.55
6.104	16.12	22.85	-0.01	7.55
6.134	15.86	22.59	-0.01	7.55
6.164	15.86	22.59	0.14	7.70
6.194	15.86	22.59	0.14	7.70
6.223	15.96	22.69	0.14	7.70
6.253	15.96	22.69	0.01	7.57
6.283	15.96	22.69	0.01	7.57
6.313	16.04	22.78	0.01	7.57
6.343	16.04	22.78	0.09	7.65
6.372	16.04	22.78	0.09	7.65
6.402	15.88	22.62	0.09	7.65
6.432	15.88	22.62	0.08	7.64
6.462	15.88	22.62	0.08	7.64
6.491	16.07	22.81	0.08	7.64
6.521	16.07	22.81	-0.01	7.55
6.551	16.07	22.81	-0.01	7.55
6.581	16.04	22.77	-0.01	7.55
6.610	16.04	22.77	0.14	7.70
6.640	16.04	22.77	0.14	7.70
6.670	16.04	22.77	0.14	7.70
6.700	16.04	22.77	0.01	7.57
6.730	16.04	22.77	0.01	7.57
6.759	15.98	22.72	0.01	7.57
6.789	15.98	22.72	0.09	7.65
6.819	15.98	22.72	0.09	7.65
6.849	16.09	22.83	0.09	7.65
6.878	16.09	22.83	0.07	7.63
6.908	16.09	22.83	0.07	7.63
6.938	15.95	22.69	0.07	7.63
6.968	15.95	22.69	-0.01	7.55
6.997	15.95	22.69	-0.01	7.55
7.027	16.07	22.81	-0.01	7.55
7.057	16.07	22.81	0.15	7.70
7.087	16.07	22.81	0.15	7.70
7.117	16.46	23.19	0.15	7.70
7.146	16.46	23.19	0.01	7.57
7.176	16.46	23.19	0.01	7.57
7.206	16.12	22.85	0.01	7.57
7.236	16.12	22.85	0.09	7.65
7.265	16.12	22.85	0.09	7.65
7.295	16.08	22.82	0.09	7.65
7.325	16.08	22.82	0.06	7.62
7.355	16.08	22.82	0.06	7.62
7.385	16.16	22.89	0.06	7.62
7.414	16.16	22.89	-0.00	7.56
7.444	16.16	22.89	-0.00	7.56
7.474	16.24	22.97	-0.00	7.56
7.504	16.24	22.97	0.15	7.70
7.533	16.24	22.97	0.15	7.70
7.563	16.24	22.98	0.15	7.70
7.593	16.24	22.98	0.00	7.56
7.623	16.24	22.98	0.00	7.56
7.652	16.30	23.04	0.00	7.56
7.682	16.30	23.04	0.10	7.65
7.712	16.30	23.04	0.10	7.65
7.742	16.38	23.12	0.10	7.65
7.772	16.38	23.12	0.06	7.62
7.801	16.38	23.12	0.06	7.62
7.831	16.23	22.96	0.06	7.62
7.861	16.23	22.96	0.00	7.56
7.891	16.23	22.96	0.00	7.56
7.920	16.17	22.90	0.00	7.56
7.950	16.17	22.90	0.15	7.70
7.980	16.17	22.90	0.15	7.70
8.010	16.19	22.93	0.15	7.70
8.039	16.19	22.93	-0.00	7.56
8.069	16.19	22.93	-0.00	7.56
8.099	16.19	22.93	-0.00	7.56
8.129	16.19	22.93	0.10	7.66
8.159	16.19	22.93	0.10	7.66
8.188	16.41	23.14	0.10	7.66
8.218	16.41	23.14	0.05	7.61
8.248	16.41	23.14	0.05	7.61
8.278	16.46	23.20	0.05	7.61
8.307	16.46	23.20	0.01	7.57
8.337	16.46	23.20	0.01	7.57
8.367	17.15	23.88	0.01	7.57
8.397	17.15	23.88	0.15	7.70
8.427	17.15	23.88	0.15	7.70
8.456	17.69	24.42	0.15	7.70
8.486	17.69	24.42	-0.00	7.55
8.516	17.69	24.42	-0.00	7.55
8.546	18.06	24.80	-0.00	7.55
8.575	18.06	24.80	0.10	7.66
8.605	18.06	24.80	0.10	7.66
8.635	18.31	25.05	0.10	7.66
8.665	18.31	25.05	0.05	7.61
8.694	18.31	25.05	0.05	7.61
8.724	18.94	25.68	0.05	7.61
8.754	18.94	25.68	0.01	7.57
8.784	18.94	25.68	0.01	7.57
8.814	19.07	25.80	0.01	7.57
8.843	19.07	25.80	0.14	7.70
8.873	19.07	25.80	0.14	7.70
8.903	18.73	25.46	0.14	7.70
8.933	18.73	25.46	-0.01	7.55
8.962	18.73	25.46	-0.01	7.55
8.992	18.70	25.44	-0.01	7.55
9.022	18.70	25.44	0.11	7.67
9.052	18.70	25.44	0.11	7.67
9.081	19.00	25.73	0.11	7.67
9.111	19.00	25.73	0.05	7.60
9.141	19.00	25.73	0.05	7.60
9.171	18.90	25.64	0.05	7.60
9.201	18.90	25.64	0.02	7.58
9.230	18.90	25.64	0.02	7.58
9.260	18.29	25.03	0.02	7.58
9.290	18.29	25.03	0.14	7.70
9.320	18.29	25.03	0.14	7.70
9.349	18.78	25.51	0.14	7.70
9.379	18.78	25.51	-0.01	7.55
9.409	18.78	25.51	-0.01	7.55
9.439	19.05	25.79	-0.01	7.55
9.468	19.05	25.79	0.11	7.67
9.498	19.05	25.79	0.11	7.67
9.528	19.01	25.74	0.11	7.67
9.558	19.01	25.74	0.05	7.60
9.588	19.01	25.74	0.05	7.60
9.617	19.34	26.07	0.05	7.60
9.647	19.34	26.07	0.02	7.58
9.677	19.34	26.07	0.02	7.58
9.707	19.45	26.19	0.02	7.58
9.736	19.45	26.19	0.14	7.70
9.766	19.45	26.19	0.14	7.70
9.796	19.60	26.33	0.14	7.70
9.826	19.60	26.33	-0.01	7.55
9.856	19.60	26.33	-0.01	7.55
9.885	19.97	26.71	-0.01	7.55
9.915	19.97	26.71	0.11	7.67
9.945	19.97	26.71	0.11	7.67
9.975	20.03	26.77	0.11	7.67
10.004	20.03	26.77	0.04	7.60
10.034	20.03	26.77	0.04	7.60
10.064	20.28	27.01	0.04	7.60
10.094	20.28	27.01	0.04	7.59
10.123	20.28	27.01	0.04	7.59
10.153	19.97	26.71	0.04	7.59
10.183	19.97	26.71	0.14	7.70
10.213	19.97	26.71	0.14	7.70
10.242	20.26	27.00	0.14	7.70
10.272	20.26	27.00	-0.01	7.55
10.302	20.26	27.00	-0.01	7.55
10.332	20.03	26.76	-0.01	7.55
10.362	20.03	26.76	0.11	7.67
10.391	20.03	26.76	0.11	7.67
10.421	19.77	26.50	0.11	7.67
10.451	19.77	26.50	0.04	7.60
10.481	19.77	26.50	0.04	7.60
10.510	19.46	26.19	0.04	7.60
10.540	19.46	26.19	0.04	7.60
10.570	19.46	26.19	0.04	7.60
10.600	19.84	26.57	0.04	7.60
10.629	19.84	26.57	0.13	7.69
10.659	19.84	26.57	0.13	7.69
10.689	19.85	26.59	0.13	7.69
10.719	19.85	26.59	-0.01	7.55
10.748	19.85	26.59	-0.01	7.55
10.778	20.21	26.95	-0.01	7.55
10.808	20.21	26.95	0.11	7.67
10.838	20.21	26.95	0.11	7.67
10.868	20.65	27.39	0.11	7.67
10.897	20.65	27.39	0.04	7.60
10.927	20.65	27.39	0.04	7.60
10.957	20.33	27.06	0.04	7.60
10.987	20.33	27.06	0.04	7.60
11.016	20.33	27.06	0.04	7.60
11.046	20.34	27.08	0.04	7.60
11.076	20.34	27.08	0.14	7.70
11.106	20.34	27.08	0.14	7.70
11.135	20.38	27.12	0.14	7.70
11.165	20.38	27.12	-0.01	7.55
11.195	20.38	27.12	-0.01	7.55
11.225	20.68	27.41	-0.01	7.55
11.254	20.68	27.41	0.11	7.67
11.284	20.68	27.41	0.11	7.67
11.314	20.88	27.62	0.11	7.67
11.344	20.88	27.62	0.03	7.59
11.373	20.88	27.62	0.03	7.59
11.403	21.09	27.82	0.03	7.59
11.433	21.09	27.82	0.05	7.61
11.463	21.09	27.82	0.05	7.61
11.493	20.56	27.29	0.05	7.61
11.522	20.56	27.29	0.14	7.70
11.552	20.56	27.29	0.14	7.70
11.582	20.30	27.04	0.14	7.70
11.612	20.30	27.04	-0.01	7.54
11.641	20.30	27.04	-0.01	7.54
11.671	20.11	26.85	-0.01	7.54
11.701	20.11	26.85	0.12	7.68
11.731	20.11	26.85	0.12	7.68
11.760	20.00	26.74	0.12	7.68
11.790	20.00	26.74	0.04	7.59
11.820	20.00	26.74	0.04	7.59
11.850	20.18	26.92	0.04	7.59
11.879	20.18	26.92	0.05	7.61
11.909	20.18	26.92	0.05	7.61
11.939	19.94	26.67	0.05	7.61
11.969	19.94	26.67	0.14	7.70
11.999	19.94	26.67	0.14	7.70
12.028	20.13	26.87	0.14	7.70
12.058	20.13	26.87	-0.01	7.54
12.088	20.13	26.87	-0.01	7.54
12.118	20.12	26.85	-0.01	7.54
12.147	20.12	26.85	0.12	7.68
12.177	20.12	26.85	0.12	7.68
12.207	20.19	26.92	0.12	7.68
12.237	20.19	26.92	0.03	7.59
12.266	20.19	26.92	0.03	7.59
12.296	20.06	26.79	0.03	7.59
12.326	20.06	26.79	0.05	7.61
12.356	20.06	26.79	0.05	7.61
12.385	20.16	26.90	0.05	7.61
12.415	20.16	26.90	0.13	7.69
12.445	20.16	26.90	0.13	7.69
12.475	20.17	26.90	0.13	7.69
12.504	20.17	26.90	-0.01	7.54
12.534	20.17	26.90	-0.01	7.54
12.564	20.65	27.39	-0.01	7.54
12.594	20.65	27.39	0.12	7.68
12.624	20.65	27.39	0.12	7.68
12.653	20.65	27.38	0.12	7.68
12.683	20.65	27.38	0.03	7.59
12.713	20.65	27.38	0.03	7.59
12.743	20.70	27.44	0.03	7.59
12.772	20.70	27.44	0.06	7.62
12.802	20.70	27.44	0.06	7.62
12.832	20.45	27.18	0.06	7.62
12.862	20.45	27.18	0.13	7.69
12.891	20.45	27.18	0.13	7.69
12.921	19.71	26.45	0.13	7.69
12.951	19.71	26.45	-0.02	7.54
12.981	19.71	26.45	-0.02	7.54
13.010	19.21	25.94	-0.02	7.54
13.040	19.21	25.94	0.12	7.68
13.070	19.21	25.94	0.12	7.68
13.100	19.39	26.12	0.12	7.68
13.130	19.39	26.12	0.03	7.59
13.159	19.39	26.12	0.03	7.59
13.189	19.73	26.46	0.03	7.59
13.219	19.73	26.46	0.06	7.62
13.249	19.73	26.46	0.06	7.62
13.278	19.53	26.26	0.06	7.62
13.308	19.53	26.26	0.13	7.69
13.338	19.53	26.26	0.13	7.69
13.368	19.67	26.41	0.13	7.69
13.397	19.67	26.41	-0.02	7.54
13.427	19.67	26.41	-0.02	7.54
13.457	19.73	26.47	-0.02	7.54
13.487	19.73	26.47	0.13	7.69
13.516	19.73	26.47	0.13	7.69
13.546	19.85	26.59	0.13	7.69
13.576	19.85	26.59	0.03	7.59
13.606	19.85	26.59	0.03	7.59
13.636	19.83	26.57	0.03	7.59
13.665	19.83	26.57	0.06	7.62
13.695	19.83	26.57	0.06	7.62
13.725	20.15	26.89	0.06	7.62
13.755	20.15	26.89	0.12	7.68
13.784	20.15	26.89	0.12	7.68
13.814	20.12	26.85	0.12	7.68
13.844	20.12	26.85	-0.01	7.54
13.874	20.12	26.85	-0.01	7.54
13.903	20.94	27.67	-0.01	7.54
13.933	20.94	27.67	0.13	7.69
13.963	20.94	27.67	0.13	7.69
13.993	20.99	27.73	0.13	7.69
14.022	20.99	27.73	0.03	7.59
14.052	20.99	27.73	0.03	7.59
14.082	20.44	27.17	0.03	7.59
14.112	20.44	27.17	0.07	7.63
14.141	20.44	27.17	0.07	7.63
14.171	20.30	27.04	0.07	7.63
14.201	20.30	27.04	0.12	7.68
14.231	20.30	27.04	0.12	7.68
14.261	19.97	26.70	0.12	7.68
14.290	19.97	26.70	-0.02	7.54
14.320	19.97	26.70	-0.02	7.54
14.350	20.01	26.74	-0.02	7.54
14.380	20.01	26.74	0.13	7.69
14.409	20.01	26.74	0.13	7.69
14.439	19.26	25.99	0.13	7.69
14.469	19.26	25.99	0.03	7.59
14.499	19.26	25.99	0.03	7.59
14.528	18.61	25.34	0.03	7.59
14.558	18.61	25.34	0.07	7.63
14.588	18.61	25.34	0.07	7.63
14.618	19.35	26.08	0.07	7.63
14.647	19.35	26.08	0.12	7.68
14.677	19.35	26.08	0.12	7.68
14.707	19.47	26.20	0.12	7.68
14.737	19.47	26.20	-0.02	7.54
14.766	19.47	26.20	-0.02	7.54
14.796	19.74	26.47	-0.02	7.54
14.826	19.74	26.47	0.13	7.69
14.856	19.74	26.47	0.13	7.69
14.886	19.63	26.37	0.13	7.69
14.915	19.63	26.37	0.02	7.58
14.945	19.63	26.37	0.02	7.58
14.975	19.84	26.57	0.02	7.58
15.005	19.84	26.57	0.08	7.64
15.034	19.84	26.57	0.08	7.64
15.064	19.93	26.66	0.08	7.64
15.094	19.93	26.66	0.11	7.67
15.124	19.93	26.66	0.11	7.67
15.153	19.86	26.60	0.11	7.67
15.183	19.86	26.60	-0.02	7.54
15.213	19.86	26.60	-0.02	7.54
15.243	20.00	26.73	-0.02	7.54
15.272	20.00	26.73	0.13	7.69
15.302	20.00	26.73	0.13	7.69
15.332	19.78	26.52	0.13	7.69
15.362	19.78	26.52	0.02	7.58
15.391	19.78	26.52	0.02	7.58
15.421	19.50	26.24	0.02	7.58
15.451	19.50	26.24	0.08	7.64
15.481	19.50	26.24	0.08	7.64
15.511	20.05	26.78	0.08	7.64
15.540	20.05	26.78	0.11	7.67
15.570	20.05	26.78	0.11	7.67
15.600	19.95	26.69	0.11	7.67
15.630	19.95	26.69	-0.01	7.55
15.659	19.95	26.69	-0.01	7.55
15.689	19.91	26.64	-0.01	7.55
15.719	19.91	26.64	0.13	7.69
15.749	19.91	26.64	0.13	7.69
15.778	19.86	26.59	0.13	7.69
15.808	19.86	26.59	0.02	7.58
15.838	19.86	26.59	0.02	7.58
15.868	19.57	26.30	0.02	7.58
15.897	19.57	26.30	0.08	7.64
15.927	19.57	26.30	0.08	7.64
15.957	19.86	26.60	0.08	7.64
15.987	19.86	26.60	0.10	7.66
16.016	19.86	26.60	0.10	7.66
16.046	18.92	25.66	0.10	7.66
16.076	18.92	25.66	-0.01	7.54
16.106	18.92	25.66	-0.01	7.54
16.136	18.90	25.63	-0.01	7.54
16.165	18.90	25.63	0.14	7.70
16.195	18.90	25.63	0.14	7.70
16.225	18.84	25.58	0.14	7.70
16.255	18.84	25.58	0.02	7.58
16.284	18.84	25.58	0.02	7.58
16.314	18.65	25.38	0.02	7.58
16.344	18.65	25.38	0.08	7.64
16.374	18.65	25.38	0.08	7.64
16.403	18.40	25.13	0.08	7.64
16.433	18.40	25.13	0.10	7.65
16.463	18.40	25.13	0.10	7.65
16.493	18.10	24.83	0.10	7.65
16.522	18.10	24.83	-0.01	7.55
16.552	18.10	24.83	-0.01	7.55
16.582	18.11	24.84	-0.01	7.55
16.612	18.11	24.84	0.13	7.69
16.642	18.11	24.84	0.13	7.69
16.671	18.33	25.07	0.13	7.69
16.701	18.33	25.07	0.02	7.58
16.731	18.33	25.07	0.02	7.58
16.761	18.75	25.48	0.02	7.58
16.790	18.75	25.48	0.09	7.65
16.820	18.75	25.48	0.09	7.65
16.850	17.91	24.65	0.09	7.65
16.880	17.91	24.65	0.09	7.65
16.909	17.91	24.65	0.09	7.65
16.939	17.88	24.61	0.09	7.65
16.969	17.88	24.61	-0.01	7.55
16.999	17.88	24.61	-0.01	7.55
17.028	17.78	24.51	-0.01	7.55
17.058	17.78	24.51	0.14	7.70
17.088	17.78	24.51	0.14	7.70
17.118	18.01	24.74	0.14	7.70
17.147	18.01	24.74	0.01	7.57
17.177	18.01	24.74	0.01	7.57
17.207	17.96	24.69	0.01	7.57
17.237	17.96	24.69	0.09	7.65
17.267	17.96	24.69	0.09	7.65
17.296	18.33	25.07	0.09	7.65
17.326	18.33	25.07	0.08	7.64
17.356	18.33	25.07	0.08	7.64
17.386	18.16	24.90	0.08	7.64
17.415	18.16	24.90	-0.01	7.55
17.445	18.16	24.90	-0.01	7.55
17.475	18.75	25.48	-0.01	7.55
17.505	18.75	25.48	0.14	7.70
17.534	18.75	25.48	0.14	7.70
17.564	18.28	25.01	0.14	7.70
17.594	18.28	25.01	0.01	7.57
17.624	18.28	25.01	0.01	7.57
17.653	18.79	25.52	0.01	7.57
17.683	18.79	25.52	0.09	7.65
17.713	18.79	25.52	0.09	7.65
17.743	18.59	25.33	0.09	7.65
17.772	18.59	25.33	0.08	7.64
17.802	18.59	25.33	0.08	7.64
17.832	19.15	25.88	0.08	7.64
17.862	19.15	25.88	-0.01	7.55
17.891	19.15	25.88	-0.01	7.55
17.921	19.51	26.25	-0.01	7.55
17.951	19.51	26.25	0.14	7.70
17.981	19.51	26.25	0.14	7.70
18.011	18.94	25.67	0.14	7.70
18.040	18.94	25.67	0.01	7.57
18.070	18.94	25.67	0.01	7.57
18.100	18.54	25.28	0.01	7.57
18.130	18.54	25.28	0.09	7.65
18.159	18.54	25.28	0.09	7.65
18.189	18.61	25.34	0.09	7.65
18.219	18.61	25.34	0.08	7.64
18.249	18.61	25.34	0.08	7.64
18.278	18.66	25.39	0.08	7.64
18.308	18.66	25.39	-0.01	7.55
18.338	18.66	25.39	-0.01	7.55
18.368	18.73	25.46	-0.01	7.55
18.397	18.73	25.46	0.15	7.70
18.427	18.73	25.46	0.15	7.70
18.457	18.97	25.70	0.15	7.70
18.487	18.97	25.70	0.01	7.57
18.516	18.97	25.70	0.01	7.57
18.546	18.66	25.39	0.01	7.57
18.576	18.66	25.39	0.10	7.65
18.606	18.66	25.39	0.10	7.65
18.636	18.73	25.46	0.10	7.65
18.665	18.73	25.46	0.07	7.63
18.695	18.73	25.46	0.07	7.63
18.725	18.55	25.29	0.07	7.63
18.755	18.55	25.29	-0.01	7.55
18.784	18.55	25.29	-0.01	7.55
18.814	18.46	25.20	-0.01	7.55
18.844	18.46	25.20	0.15	7.71
18.874	18.46	25.20	0.15	7.71
18.903	18.50	25.23	0.15	7.71
18.933	18.50	25.23	0.01	7.57
18.963	18.50	25.23	0.01	7.57
18.993	18.33	25.06	0.01	7.57
19.022	18.33	25.06	0.09	7.65
19.052	18.33	25.06	0.09	7.65
19.082	19.00	25.73	0.09	7.65
19.112	19.00	25.73	0.07	7.63
19.142	19.00	25.73	0.07	7.63
19.171	19.08	25.82	0.07	7.63
19.201	19.08	25.82	-0.01	7.55
19.231	19.08	25.82	-0.01	7.55
19.261	19.63	26.37	-0.01	7.55
19.290	19.63	26.37	0.15	7.70
19.320	19.63	26.37	0.15	7.70
19.350	19.64	26.38	0.15	7.70
19.380	19.64	26.38	0.00	7.56
19.409	19.64	26.38	0.00	7.56
19.439	20.06	26.79	0.00	7.56
19.469	20.06	26.79	0.10	7.66
19.499	20.06	26.79	0.10	7.66
19.528	19.99	26.72	0.10	7.66
19.558	19.99	26.72	0.06	7.62
19.588	19.99	26.72	0.06	7.62
19.618	20.28	27.02	0.06	7.62
19.648	20.28	27.02	-0.00	7.56
19.677	20.28	27.02	-0.00	7.56
19.707	20.35	27.09	-0.00	7.56
19.737	20.35	27.09	0.15	7.70
19.766	20.35	27.09	0.15	7.70
19.796	20.44	27.17	0.15	7.70
19.826	20.44	27.17	-0.00	7.56
19.856	20.44	27.17	-0.00	7.56
19.886	20.50	27.24	-0.00	7.56
19.915	20.50	27.24	0.10	7.66
19.945	20.50	27.24	0.10	7.66
19.975	20.77	27.51	0.10	7.66
20.005	20.77	27.51	0.06	7.62
20.034	20.77	27.51	0.06	7.62
20.064	20.69	27.42	0.06	7.62
20.094	20.69	27.42	-0.00	7.56
20.124	20.69	27.42	-0.00	7.56
20.153	20.40	27.14	-0.00	7.56
20.183	20.40	27.14	0.14	7.70
20.213	20.40	27.14	0.14	7.70
20.243	20.38	27.12	0.14	7.70
20.272	20.38	27.12	0.00	7.56
20.302	20.38	27.12	0.00	7.56
20.332	20.08	26.81	0.00	7.56
20.362	20.08	26.81	0.10	7.65
20.391	20.08	26.81	0.10	7.65
20.421	19.27	26.00	0.10	7.65
20.451	19.27	26.00	0.06	7.62
20.481	19.27	26.00	0.06	7.62
20.510	19.48	26.21	0.06	7.62
20.540	19.48	26.21	0.01	7.57
20.570	19.48	26.21	0.01	7.57
20.600	19.46	26.20	0.01	7.57
20.630	19.46	26.20	0.14	7.70
20.659	19.46	26.20	0.14	7.70
20.689	19.58	26.31	0.14	7.70
20.719	19.58	26.31	-0.00	7.56
20.749	19.58	26.31	-0.00	7.56
20.778	19.98	26.72	-0.00	7.56
20.808	19.98	26.72	0.10	7.66
20.838	19.98	26.72	0.10	7.66
20.868	19.64	26.37	0.10	7.66
20.897	19.64	26.37	0.05	7.61
20.927	19.64	26.37	0.05	7.61
20.957	19.56	26.30	0.05	7.61
20.987	19.56	26.30	0.01	7.57
21.016	19.56	26.30	0.01	7.57
21.046	19.60	26.33	0.01	7.57
21.076	19.60	26.33	0.14	7.70
21.106	19.60	26.33	0.14	7.70
21.135	20.01	26.75	0.14	7.70
21.165	20.01	26.75	-0.00	7.56
21.195	20.01	26.75	-0.00	7.56
21.225	20.03	26.76	-0.00	7.56
21.255	20.03	26.76	0.10	7.66
21.284	20.03	26.76	0.10	7.66
21.314	19.90	26.63	0.10	7.66
21.344	19.90	26.63	0.05	7.61
21.374	19.90	26.63	0.05	7.61
21.403	20.28	27.01	0.05	7.61
21.433	20.28	27.01	0.01	7.57
21.463	20.28	27.01	0.01	7.57
21.493	20.52	27.26	0.01	7.57
21.522	20.52	27.26	0.15	7.71
21.552	20.52	27.26	0.15	7.71
21.582	20.61	27.34	0.15	7.71
21.612	20.61	27.34	-0.01	7.55
21.641	20.61	27.34	-0.01	7.55
21.671	20.68	27.42	-0.01	7.55
21.701	20.68	27.42	0.10	7.66
21.731	20.68	27.42	0.10	7.66
21.761	20.87	27.60	0.10	7.66
21.790	20.87	27.60	0.05	7.61
21.820	20.87	27.60	0.05	7.61
21.850	20.50	27.23	0.05	7.61
21.880	20.50	27.23	0.01	7.57
21.909	20.50	27.23	0.01	7.57
21.939	20.77	27.51	0.01	7.57
21.969	20.77	27.51	0.14	7.70
21.999	20.77	27.51	0.14	7.70
22.028	20.90	27.63	0.14	7.70
22.058	20.90	27.63	-0.00	7.56
22.088	20.90	27.63	-0.00	7.56
22.118	20.80	27.53	-0.00	7.56
22.147	20.80	27.53	0.10	7.66
22.177	20.80	27.53	0.10	7.66
22.207	20.88	27.62	0.10	7.66
22.237	20.88	27.62	0.05	7.61
22.266	20.88	27.62	0.05	7.61
22.296	20.98	27.72	0.05	7.61
22.326	20.98	27.72	0.01	7.57
22.356	20.98	27.72	0.01	7.57
22.386	21.01	27.74	0.01	7.57
22.415	21.01	27.74	0.14	7.70
22.445	21.01	27.74	0.14	7.70
22.475	21.03	27.76	0.14	7.70
22.505	21.03	27.76	-0.00	7.55
22.534	21.03	27.76	-0.00	7.55
22.564	21.10	27.84	-0.00	7.55
22.594	21.10	27.84	0.10	7.66
22.624	21.10	27.84	0.10	7.66
22.653	20.64	27.38	0.10	7.66
22.683	20.64	27.38	0.05	7.61
22.713	20.64	27.38	0.05	7.61
22.743	21.31	28.04	0.05	7.61
22.772	21.31	28.04	0.02	7.58
22.802	21.31	28.04	0.02	7.58
22.832	21.46	28.19	0.02	7.58
22.862	21.46	28.19	0.14	7.70
22.892	21.46	28.19	0.14	7.70
22.921	21.52	28.25	0.14	7.70
22.951	21.52	28.25	-0.00	7.55
22.981	21.52	28.25	-0.00	7.55
23.011	21.18	27.91	-0.00	7.55
23.040	21.18	27.91	0.10	7.66
23.070	21.18	27.91	0.10	7.66
23.100	21.09	27.83	0.10	7.66
23.130	21.09	27.83	0.04	7.60
23.159	21.09	27.83	0.04	7.60
23.189	21.39	28.13	0.04	7.60
23.219	21.39	28.13	0.02	7.58
23.249	21.39	28.13	0.02	7.58
23.278	21.26	28.00	0.02	7.58
23.308	21.26	28.00	0.15	7.70
23.338	21.26	28.00	0.15	7.70
23.368	21.17	27.90	0.15	7.70
23.398	21.17	27.90	-0.01	7.55
23.427	21.17	27.90	-0.01	7.55
23.457	22.00	28.73	-0.01	7.55
23.487	22.00	28.73	0.11	7.67
23.517	22.00	28.73	0.11	7.67
23.546	22.12	28.85	0.11	7.67
23.576	22.12	28.85	0.05	7.61
23.606	22.12	28.85	0.05	7.61
23.636	22.10	28.83	0.05	7.61
23.665	22.10	28.83	0.02	7.58
23.695	22.10	28.83	0.02	7.58
23.725	22.12	28.86	0.02	7.58
23.755	22.12	28.86	0.14	7.70
23.784	22.12	28.86	0.14	7.70
23.814	22.04	28.78	0.14	7.70
23.844	22.04	28.78	-0.01	7.55
23.873	22.04	28.78	-0.01	7.55
23.903	22.05	28.78	-0.01	7.55
23.933	22.05	28.78	0.11	7.67
23.963	22.05	28.78	0.11	7.67
23.993	21.98	28.72	0.11	7.67
24.022	21.98	28.72	0.04	7.60
24.052	21.98	28.72	0.04	7.60
24.082	21.95	28.69	0.04	7.60
24.112	21.95	28.69	0.02	7.58
24.141	21.95	28.69	0.02	7.58
24.171	22.08	28.82	0.02	7.58
24.201	22.08	28.82	0.15	7.70
24.231	22.08	28.82	0.15	7.70
24.260	21.95	28.68	0.15	7.70
24.290	21.95	28.68	-0.01	7.55
24.320	21.95	28.68	-0.01	7.55
24.350	22.12	28.86	-0.01	7.55
24.379	22.12	28.86	0.11	7.67
24.409	22.12	28.86	0.11	7.67
24.439	22.33	29.07	0.11	7.67
24.469	22.33	29.07	0.04	7.60
24.498	22.33	29.07	0.04	7.60
24.528	22.26	28.99	0.04	7.60
24.558	22.26	28.99	0.02	7.58
24.588	22.26	28.99	0.02	7.58
24.617	22.07	28.80	0.02	7.58
24.647	22.07	28.80	0.14	7.70
24.677	22.07	28.80	0.14	7.70
24.707	22.14	28.87	0.14	7.70
24.736	22.14	28.87	-0.01	7.55
24.766	22.14	28.87	-0.01	7.55
24.796	22.21	28.94	-0.01	7.55
24.826	22.21	28.94	0.11	7.67
24.855	22.21	28.94	0.11	7.67
24.885	22.49	29.23	0.11	7.67
24.915	22.49	29.23	0.05	7.60
24.945	22.49	29.23	0.05	7.60
24.975	22.45	29.18	0.05	7.60
25.004	22.45	29.18	0.02	7.58
25.034	22.45	29.18	0.02	7.58
25.064	21.62	28.35	0.02	7.58
25.094	21.62	28.35	0.14	7.70
25.123	21.62	28.35	0.14	7.70
25.153	21.50	28.24	0.14	7.70
25.183	21.50	28.24	-0.01	7.55
25.213	21.50	28.24	-0.01	7.55
25.242	21.24	27.98	-0.01	7.55
25.272	21.24	27.98	0.11	7.67
25.302	21.24	27.98	0.11	7.67
25.332	21.55	28.28	0.11	7.67
25.361	21.55	28.28	0.04	7.60
25.391	21.55	28.28	0.04	7.60
25.421	21.49	28.23	0.04	7.60
25.451	21.49	28.23	0.03	7.58
25.481	21.49	28.23	0.03	7.58
25.510	21.65	28.38	0.03	7.58
25.540	21.65	28.38	0.14	7.70
25.570	21.65	28.38	0.14	7.70
25.600	21.69	28.43	0.14	7.70
25.629	21.69	28.43	-0.01	7.54
25.659	21.69	28.43	-0.01	7.54
25.689	21.73	28.47	-0.01	7.54
25.719	21.73	28.47	0.11	7.67
25.748	21.73	28.47	0.11	7.67
25.778	21.78	28.51	0.11	7.67
25.808	21.78	28.51	0.04	7.60
25.838	21.78	28.51	0.04	7.60
25.867	21.98	28.71	0.04	7.60
25.897	21.98	28.71	0.03	7.58
25.927	21.98	28.71	0.03	7.58
25.957	22.04	28.77	0.03	7.58
25.986	22.04	28.77	0.14	7.70
26.016	22.04	28.77	0.14	7.70
26.046	22.02	28.76	0.14	7.70
26.076	22.02	28.76	-0.01	7.55
26.106	22.02	28.76	-0.01	7.55
26.135	21.95	28.68	-0.01	7.55
26.165	21.95	28.68	0.11	7.67
26.195	21.95	28.68	0.11	7.67
26.225	21.72	28.46	0.11	7.67
26.254	21.72	28.46	0.04	7.60
26.284	21.72	28.46	0.04	7.60
26.314	21.55	28.28	0.04	7.60
26.344	21.55	28.28	0.03	7.59
26.373	21.55	28.28	0.03	7.59
26.403	21.35	28.08	0.03	7.59
26.433	21.35	28.08	0.14	7.70
26.463	21.35	28.08	0.14	7.70
26.492	21.29	28.02	0.14	7.70
26.522	21.29	28.02	-0.01	7.55
26.552	21.29	28.02	-0.01	7.55
26.582	21.74	28.48	-0.01	7.55
26.612	21.74	28.48	0.11	7.67
26.641	21.74	28.48	0.11	7.67
26.671	21.72	28.46	0.11	7.67
26.701	21.72	28.46	0.04	7.60
26.731	21.72	28.46	0.04	7.60
26.760	21.78	28.52	0.04	7.60
26.790	21.78	28.52	0.03	7.59
26.820	21.78	28.52	0.03	7.59
26.850	22.16	28.90	0.03	7.59
26.879	22.16	28.90	0.14	7.70
26.909	22.16	28.90	0.14	7.70
26.939	22.20	28.93	0.14	7.70
26.969	22.20	28.93	-0.01	7.55
26.998	22.20	28.93	-0.01	7.55
27.028	22.31	29.04	-0.01	7.55
27.058	22.31	29.04	0.11	7.67
27.088	22.31	29.04	0.11	7.67
27.117	22.21	28.94	0.11	7.67
27.147	22.21	28.94	0.04	7.60
27.177	22.21	28.94	0.04	7.60
27.207	22.23	28.97	0.04	7.60
27.236	22.23	28.97	0.03	7.59
27.266	22.23	28.97	0.03	7.59
27.296	22.34	29.08	0.03	7.59
27.326	22.34	29.08	0.14	7.70
27.356	22.34	29.08	0.14	7.70
27.385	22.14	28.88	0.14	7.70
27.415	22.14	28.88	-0.01	7.55
27.445	22.14	28.88	-0.01	7.55
27.475	22.22	28.95	-0.01	7.55
27.504	22.22	28.95	0.11	7.67
27.534	22.22	28.95	0.11	7.67
27.564	22.49	29.23	0.11	7.67
27.594	22.49	29.23	0.04	7.60
27.623	22.49	29.23	0.04	7.60
27.653	22.15	28.88	0.04	7.60
27.683	22.15	28.88	0.04	7.59
27.713	22.15	28.88	0.04	7.59
27.742	22.29	29.02	0.04	7.59
27.772	22.29	29.02	0.14	7.70
27.802	22.29	29.02	0.14	7.70
27.832	21.77	28.51	0.14	7.70
27.861	21.77	28.51	-0.01	7.55
27.891	21.77	28.51	-0.01	7.55
27.921	21.86	28.59	-0.01	7.55
27.951	21.86	28.59	0.11	7.67
27.981	21.86	28.59	0.11	7.67
28.010	22.20	28.94	0.11	7.67
28.040	22.20	28.94	0.04	7.60
28.070	22.20	28.94	0.04	7.60
28.100	22.38	29.11	0.04	7.60
28.129	22.38	29.11	0.04	7.59
28.159	22.38	29.11	0.04	7.59
28.189	21.73	28.47	0.04	7.59
28.219	21.73	28.47	0.14	7.70
28.248	21.73	28.47	0.14	7.70
28.278	21.32	28.06	0.14	7.70
28.308	21.32	28.06	-0.01	7.55
28.338	21.32	28.06	-0.01	7.55
28.367	21.09	27.83	-0.01	7.55
28.397	21.09	27.83	0.11	7.67
28.427	21.09	27.83	0.11	7.67
28.457	21.11	27.84	0.11	7.67
28.487	21.11	27.84	0.04	7.60
28.516	21.11	27.84	0.04	7.60
28.546	21.05	27.78	0.04	7.60
28.576	21.05	27.78	0.04	7.60
28.606	21.05	27.78	0.04	7.60
28.635	21.16	27.89	0.04	7.60
28.665	21.16	27.89	0.14	7.70
28.695	21.16	27.89	0.14	7.70
28.725	20.76	27.49	0.14	7.70
28.754	20.76	27.49	-0.01	7.55
28.784	20.76	27.49	-0.01	7.55
28.814	20.74	27.47	-0.01	7.55
28.844	20.74	27.47	0.11	7.67
28.873	20.74	27.47	0.11	7.67
28.903	20.65	27.39	0.11	7.67
28.933	20.65	27.39	0.04	7.60
28.963	20.65	27.39	0.04	7.60
28.992	20.46	27.19	0.04	7.60
29.022	20.46	27.19	0.04	7.59
29.052	20.46	27.19	0.04	7.59
29.082	20.99	27.73	0.04	7.59
29.112	20.99	27.73	0.14	7.70
29.141	20.99	27.73	0.14	7.70
29.171	20.66	27.39	0.14	7.70
29.201	20.66	27.39	-0.01	7.55
29.231	20.66	27.39	-0.01	7.55
29.260	20.95	27.68	-0.01	7.55
29.290	20.95	27.68	0.11	7.67
29.320	20.95	27.68	0.11	7.67
29.350	21.38	28.12	0.11	7.67
29.379	21.38	28.12	0.04	7.60
29.409	21.38	28.12	0.04	7.60
29.439	21.52	28.25	0.04	7.60
29.469	21.52	28.25	0.04	7.59
29.498	21.52	28.25	0.04	7.59
29.528	21.85	28.58	0.04	7.59
29.558	21.85	28.58	0.14	7.70
29.588	21.85	28.58	0.14	7.70
29.618	21.73	28.46	0.14	7.70
29.647	21.73	28.46	-0.01	7.54
29.677	21.73	28.46	-0.01	7.54
29.707	22.06	28.79	-0.01	7.54
29.737	22.06	28.79	0.11	7.67
29.766	22.06	28.79	0.11	7.67
29.796	22.13	28.87	0.11	7.67
29.826	22.13	28.87	0.04	7.60
29.856	22.13	28.87	0.04	7.60
29.885	21.91	28.64	0.04	7.60
29.915	21.91	28.64	0.04	7.59
29.945	21.91	28.64	0.04	7.59
29.975	21.87	28.61	0.04	7.59
30.004	21.87	28.61	0.14	7.70
30.034	21.87	28.61	0.14	7.70
30.064	21.54	28.27	0.14	7.70
30.094	21.54	28.27	-0.01	7.54
30.123	21.54	28.27	-0.01	7.54
30.153	21.62	28.35	-0.01	7.54
30.183	21.62	28.35	0.11	7.67
30.213	21.62	28.35	0.11	7.67
30.242	21.49	28.23	0.11	7.67
30.272	21.49	28.23	0.04	7.59
30.302	21.49	28.23	0.04	7.59
30.332	21.22	27.95	0.04	7.59
30.362	21.22	27.95	0.04	7.59
30.391	21.22	27.95	0.04	7.59
30.421	20.94	27.67	0.04	7.59
30.451	20.94	27.67	0.14	7.70
30.481	20.94	27.67	0.14	7.70
30.510	20.92	27.65	0.14	7.70
30.540	20.92	27.65	-0.01	7.55
30.570	20.92	27.65	-0.01	7.55
30.600	20.80	27.53	-0.01	7.55
30.629	20.80	27.53	0.12	7.68
30.659	20.80	27.53	0.12	7.68
30.689	20.83	27.57	0.12	7.68
30.719	20.83	27.57	0.04	7.59
30.748	20.83	27.57	0.04	7.59
30.778	20.92	27.66	0.04	7.59
30.808	20.92	27.66	0.03	7.59
30.838	20.92	27.66	0.03	7.59
30.868	20.94	27.67	0.03	7.59
30.897	20.94	27.67	0.14	7.70
30.927	20.94	27.67	0.14	7.70
30.957	20.95	27.68	0.14	7.70
30.987	20.95	27.68	-0.01	7.55
31.016	20.95	27.68	-0.01	7.55
31.046	21.08	27.81	-0.01	7.55
31.076	21.08	27.81	0.11	7.67
31.106	21.08	27.81	0.11	7.67
31.135	20.88	27.61	0.11	7.67
31.165	20.88	27.61	0.04	7.60
31.195	20.88	27.61	0.04	7.60
31.225	21.05	27.79	0.04	7.60
31.254	21.05	27.79	0.04	7.59
31.284	21.05	27.79	0.04	7.59
31.314	20.98	27.71	0.04	7.59
31.344	20.98	27.71	0.14	7.70
31.374	20.98	27.71	0.14	7.70
31.403	20.80	27.53	0.14	7.70
31.433	20.80	27.53	-0.01	7.55
31.463	20.80	27.53	-0.01	7.55
31.493	20.66	27.40	-0.01	7.55
31.522	20.66	27.40	0.12	7.68
31.552	20.66	27.40	0.12	7.68
31.582	20.71	27.45	0.12	7.68
31.612	20.71	27.45	0.04	7.60
31.641	20.71	27.45	0.04	7.60
31.671	20.68	27.42	0.04	7.60
31.701	20.68	27.42	0.03	7.59
31.731	20.68	27.42	0.03	7.59
31.760	21.11	27.85	0.03	7.59
31.790	21.11	27.85	0.14	7.70
31.820	21.11	27.85	0.14	7.70
31.850	21.16	27.89	0.14	7.70
31.879	21.16	27.89	-0.01	7.55
31.909	21.16	27.89	-0.01	7.55
31.939	20.80	27.54	-0.01	7.55
31.969	20.80	27.54	0.12	7.68
31.999	20.80	27.54	0.12	7.68
32.028	20.69	27.42	0.12	7.68
32.058	20.69	27.42	0.04	7.60
32.088	20.69	27.42	0.04	7.60
32.118	20.83	27.57	0.04	7.60
32.147	20.83	27.57	0.04	7.60
32.177	20.83	27.57	0.04	7.60
32.207	20.85	27.58	0.04	7.60
32.237	20.85	27.58	0.14	7.70
32.266	20.85	27.58	0.14	7.70
32.296	20.96	27.69	0.14	7.70
32.326	20.96	27.69	-0.01	7.55
32.356	20.96	27.69	-0.01	7.55
32.385	21.34	28.07	-0.01	7.55
32.415	21.34	28.07	0.11	7.67
32.445	21.34	28.07	0.11	7.67
32.475	21.32	28.06	0.11	7.67
32.505	21.32	28.06	0.04	7.60
32.534	21.32	28.06	0.04	7.60
32.564	21.35	28.08	0.04	7.60
32.594	21.35	28.08	0.03	7.59
32.624	21.35	28.08	0.03	7.59
32.653	20.98	27.71	0.03	7.59
32.683	20.98	27.71	0.14	7.70
32.713	20.98	27.71	0.14	7.70
32.743	21.28	28.01	0.14	7.70
32.772	21.28	28.01	-0.01	7.55
32.802	21.28	28.01	-0.01	7.55
32.832	21.23	27.96	-0.01	7.55
32.862	21.23	27.96	0.11	7.67
32.891	21.23	27.96	0.11	7.67
32.921	21.80	28.54	0.11	7.67
32.951	21.80	28.54	0.04	7.59
32.981	21.80	28.54	0.04	7.59
33.010	21.89	28.63	0.04	7.59
33.040	21.89	28.63	0.04	7.59
33.070	21.89	28.63	0.04	7.59
33.100	21.93	28.67	0.04	7.59
33.129	21.93	28.67	0.14	7.70
33.159	21.93	28.67	0.14	7.70
33.189	21.98	28.71	0.14	7.70
33.219	21.98	28.71	-0.01	7.55
33.249	21.98	28.71	-0.01	7.55
33.278	21.99	28.72	-0.01	7.55
33.308	21.99	28.72	0.12	7.68
33.338	21.99	28.72	0.12	7.68
33.368	22.02	28.75	0.12	7.68
33.397	22.02	28.75	0.04	7.60
33.427	22.02	28.75	0.04	7.60
33.457	21.94	28.68	0.04	7.60
33.487	21.94	28.68	0.03	7.59
33.516	21.94	28.68	0.03	7.59
33.546	21.63	28.37	0.03	7.59
33.576	21.63	28.37	0.14	7.70
33.606	21.63	28.37	0.14	7.70
33.635	21.00	27.73	0.14	7.70
33.665	21.00	27.73	-0.01	7.55
33.695	21.00	27.73	-0.01	7.55
33.725	20.69	27.42	-0.01	7.55
33.754	20.69	27.42	0.11	7.67
33.784	20.69	27.42	0.11	7.67
33.814	21.13	27.86	0.11	7.67
33.844	21.13	27.86	0.04	7.60
33.874	21.13	27.86	0.04	7.60
33.903	20.80	27.54	0.04	7.60
33.933	20.80	27.54	0.04	7.60
33.963	20.80	27.54	0.04	7.60
33.993	20.82	27.56	0.04	7.60
34.022	20.82	27.56	0.14	7.70
34.052	20.82	27.56	0.14	7.70
34.082	21.19	27.93	0.14	7.70
34.112	21.19	27.93	-0.01	7.55
34.141	21.19	27.93	-0.01	7.55
34.171	21.03	27.76	-0.01	7.55
34.201	21.03	27.76	0.12	7.68
34.231	21.03	27.76	0.12	7.68
34.260	20.97	27.70	0.12	7.68
34.290	20.97	27.70	0.04	7.60
34.320	20.97	27.70	0.04	7.60
34.350	20.62	27.36	0.04	7.60
34.380	20.62	27.36	0.04	7.60
34.409	20.62	27.36	0.04	7.60
34.439	21.21	27.94	0.04	7.60
34.469	21.21	27.94	0.14	7.70
34.499	21.21	27.94	0.14	7.70
34.528	20.87	27.60	0.14	7.70
34.558	20.87	27.60	-0.01	7.55
34.588	20.87	27.60	-0.01	7.55
34.618	20.60	27.34	-0.01	7.55
34.647	20.60	27.34	0.12	7.68
34.677	20.60	27.34	0.12	7.68
34.707	20.70	27.43	0.12	7.68
34.737	20.70	27.43	0.04	7.59
34.766	20.70	27.43	0.04	7.59
34.796	20.29	27.03	0.04	7.59
34.826	20.29	27.03	0.04	7.59
34.856	20.29	27.03	0.04	7.59
34.885	20.32	27.06	0.04	7.59
34.915	20.32	27.06	0.14	7.70
34.945	20.32	27.06	0.14	7.70
34.975	20.67	27.41	0.14	7.70
35.005	20.67	27.41	-0.01	7.55
35.034	20.67	27.41	-0.01	7.55
35.064	20.29	27.02	-0.01	7.55
35.094	20.29	27.02	0.12	7.68
35.124	20.29	27.02	0.12	7.68
35.153	20.24	26.98	0.12	7.68
35.183	20.24	26.98	0.04	7.59
35.213	20.24	26.98	0.04	7.59
35.243	19.99	26.72	0.04	7.59
35.272	19.99	26.72	0.04	7.60
35.302	19.99	26.72	0.04	7.60
35.332	20.60	27.33	0.04	7.60
35.362	20.60	27.33	0.14	7.70
35.391	20.60	27.33	0.14	7.70
35.421	19.87	26.60	0.14	7.70
35.451	19.87	26.60	-0.01	7.55
35.481	19.87	26.60	-0.01	7.55
35.511	20.06	26.79	-0.01	7.55
35.540	20.06	26.79	0.11	7.67
35.570	20.06	26.79	0.11	7.67
35.600	20.56	27.30	0.11	7.67
35.630	20.56	27.30	0.04	7.60
35.659	20.56	27.30	0.04	7.60
35.689	20.52	27.25	0.04	7.60
35.719	20.52	27.25	0.04	7.60
35.749	20.52	27.25	0.04	7.60
35.778	20.60	27.34	0.04	7.60
35.808	20.60	27.34	0.14	7.70
35.838	20.60	27.34	0.14	7.70
35.868	20.73	27.46	0.14	7.70
35.897	20.73	27.46	-0.01	7.55
35.927	20.73	27.46	-0.01	7.55
35.957	20.97	27.70	-0.01	7.55
35.987	20.97	27.70	0.12	7.68
36.016	20.97	27.70	0.12	7.68
36.046	21.06	27.80	0.12	7.68
36.076	21.06	27.80	0.04	7.60
36.106	21.06	27.80	0.04	7.60
36.136	21.01	27.74	0.04	7.60
36.165	21.01	27.74	0.04	7.60
36.195	21.01	27.74	0.04	7.60
36.225	21.03	27.76	0.04	7.60
36.255	21.03	27.76	0.14	7.70
36.284	21.03	27.76	0.14	7.70
36.314	21.22	27.95	0.14	7.70
36.344	21.22	27.95	-0.01	7.55
36.374	21.22	27.95	-0.01	7.55
36.403	21.32	28.05	-0.01	7.55
36.433	21.32	28.05	0.12	7.68
36.463	21.32	28.05	0.12	7.68
36.493	21.15	27.88	0.12	7.68
36.522	21.15	27.88	0.04	7.60
36.552	21.15	27.88	0.04	7.60
36.582	20.26	27.00	0.04	7.60
36.612	20.26	27.00	0.04	7.60
36.641	20.26	27.00	0.04	7.60
36.671	20.88	27.61	0.04	7.60
36.701	20.88	27.61	0.14	7.70
36.731	20.88	27.61	0.14	7.70
36.760	20.39	27.12	0.14	7.70
36.790	20.39	27.12	-0.01	7.55
36.820	20.39	27.12	-0.01	7.55
36.850	20.48	27.22	-0.01	7.55
36.879	20.48	27.22	0.11	7.67
36.909	20.48	27.22	0.11	7.67
36.939	20.21	26.95	0.11	7.67
36.969	20.21	26.95	0.04	7.59
36.998	20.21	26.95	0.04	7.59
37.028	20.50	27.23	0.04	7.59
37.058	20.50	27.23	0.03	7.59
37.088	20.50	27.23	0.03	7.59
37.118	20.56	27.30	0.03	7.59
37.147	20.56	27.30	0.14	7.70
37.177	20.56	27.30	0.14	7.70
37.207	20.59	27.32	0.14	7.70
37.237	20.59	27.32	-0.01	7.55
37.266	20.59	27.32	-0.01	7.55
37.296	20.60	27.33	-0.01	7.55
37.326	20.60	27.33	0.12	7.68
37.356	20.60	27.33	0.12	7.68
37.385	20.55	27.29	0.12	7.68
37.415	20.55	27.29	0.04	7.60
37.445	20.55	27.29	0.04	7.60
37.475	20.41	27.15	0.04	7.60
37.504	20.41	27.15	0.04	7.60
37.534	20.41	27.15	0.04	7.60
37.564	20.51	27.24	0.04	7.60
37.594	20.51	27.24	0.14	7.70
37.624	20.51	27.24	0.14	7.70
37.653	20.39	27.13	0.14	7.70
37.683	20.39	27.13	-0.01	7.55
37.713	20.39	27.13	-0.01	7.55
37.743	20.09	26.82	-0.01	7.55
37.772	20.09	26.82	0.11	7.67
37.802	20.09	26.82	0.11	7.67
37.832	20.00	26.73	0.11	7.67
37.862	20.00	26.73	0.04	7.60
37.891	20.00	26.73	0.04	7.60
37.921	19.49	26.22	0.04	7.60
37.951	19.49	26.22	0.04	7.60
37.981	19.49	26.22	0.04	7.60
38.010	19.98	26.72	0.04	7.60
38.040	19.98	26.72	0.14	7.70
38.070	19.98	26.72	0.14	7.70
38.100	20.00	26.74	0.14	7.70
38.130	20.00	26.74	-0.01	7.55
38.159	20.00	26.74	-0.01	7.55
38.189	19.96	26.70	-0.01	7.55
38.219	19.96	26.70	0.11	7.67
38.249	19.96	26.70	0.11	7.67
38.278	19.77	26.50	0.11	7.67
38.308	19.77	26.50	0.04	7.60
38.338	19.77	26.50	0.04	7.60
38.368	19.86	26.60	0.04	7.60
38.397	19.86	26.60	0.03	7.59
38.427	19.86	26.60	0.03	7.59
38.457	20.09	26.83	0.03	7.59
38.487	20.09	26.83	0.15	7.70
38.516	20.09	26.83	0.15	7.70
38.546	20.06	26.79	0.15	7.70
38.576	20.06	26.79	-0.01	7.54
38.606	20.06	26.79	-0.01	7.54
38.635	20.01	26.75	-0.01	7.54
38.665	20.01	26.75	0.11	7.67
38.695	20.01	26.75	0.11	7.67
38.725	19.79	26.53	0.11	7.67
38.754	19.79	26.53	0.04	7.60
38.784	19.79	26.53	0.04	7.60
38.814	19.68	26.41	0.04	7.60
38.844	19.68	26.41	0.03	7.59
38.874	19.68	26.41	0.03	7.59
38.903	19.75	26.48	0.03	7.59
38.933	19.75	26.48	0.14	7.70
38.963	19.75	26.48	0.14	7.70
38.993	19.57	26.30	0.14	7.70
39.022	19.57	26.30	-0.01	7.55
39.052	19.57	26.30	-0.01	7.55
39.082	19.51	26.25	-0.01	7.55
39.112	19.51	26.25	0.11	7.67
39.141	19.51	26.25	0.11	7.67
39.171	19.31	26.05	0.11	7.67
39.201	19.31	26.05	0.04	7.60
39.231	19.31	26.05	0.04	7.60
39.260	19.32	26.05	0.04	7.60
39.290	19.32	26.05	0.04	7.59
39.320	19.32	26.05	0.04	7.59
39.350	19.57	26.30	0.04	7.59
39.380	19.57	26.30	0.14	7.70
39.409	19.57	26.30	0.14	7.70
39.439	19.64	26.37	0.14	7.70
39.469	19.64	26.37	-0.01	7.55
39.499	19.64	26.37	-0.01	7.55
39.528	19.42	26.16	-0.01	7.55
39.558	19.42	26.16	0.11	7.67
39.588	19.42	26.16	0.11	7.67
39.618	19.81	26.54	0.11	7.67
39.647	19.81	26.54	0.04	7.60
39.677	19.81	26.54	0.04	7.60
39.707	20.41	27.14	0.04	7.60
39.737	20.41	27.14	0.03	7.59
39.766	20.41	27.14	0.03	7.59
39.796	20.39	27.13	0.03	7.59
39.826	20.39	27.13	0.14	7.70
39.856	20.39	27.13	0.14	7.70
39.886	20.73	27.47	0.14	7.70
39.915	20.73	27.47	-0.01	7.55
39.945	20.73	27.47	-0.01	7.55
39.975	20.59	27.32	-0.01	7.55
40.005	20.59	27.32	0.11	7.67
40.034	20.59	27.32	0.11	7.67
40.064	20.54	27.27	0.11	7.67
40.094	20.54	27.27	0.04	7.60
40.124	20.54	27.27	0.04	7.60
40.153	20.64	27.37	0.04	7.60
40.183	20.64	27.37	0.03	7.59
40.213	20.64	27.37	0.03	7.59
40.243	20.44	27.17	0.03	7.59
40.272	20.44	27.17	0.14	7.70
40.302	20.44	27.17	0.14	7.70
40.332	20.17	26.91	0.14	7.70
40.362	20.17	26.91	-0.01	7.55
40.391	20.17	26.91	-0.01	7.55
40.421	20.20	26.94	-0.01	7.55
40.451	20.20	26.94	0.11	7.67
40.481	20.20	26.94	0.11	7.67
40.511	20.25	26.99	0.11	7.67
40.540	20.25	26.99	0.04	7.60
40.570	20.25	26.99	0.04	7.60
40.600	19.89	26.62	0.04	7.60
40.630	19.89	26.62	0.03	7.59
40.659	19.89	26.62	0.03	7.59
40.689	20.00	26.73	0.03	7.59
40.719	20.00	26.73	0.14	7.70
40.749	20.00	26.73	0.14	7.70
40.778	19.95	26.68	0.14	7.70
40.808	19.95	26.68	-0.01	7.55
40.838	19.95	26.68	-0.01	7.55
40.868	20.16	26.89	-0.01	7.55
40.897	20.16	26.89	0.11	7.67
40.927	20.16	26.89	0.11	7.67
40.957	20.16	26.89	0.11	7.67
40.987	20.16	26.89	0.04	7.60
41.017	20.16	26.89	0.04	7.60
41.046	19.97	26.70	0.04	7.60
41.076	19.97	26.70	0.03	7.59
41.106	19.97	26.70	0.03	7.59
41.136	20.28	27.01	0.03	7.59
41.165	20.28	27.01	0.14	7.70
41.195	20.28	27.01	0.14	7.70
41.225	20.40	27.13	0.14	7.70
41.255	20.40	27.13	-0.01	7.55
41.284	20.40	27.13	-0.01	7.55
41.314	19.89	26.62	-0.01	7.55
41.344	19.89	26.62	0.11	7.67
41.374	19.89	26.62	0.11	7.67
41.403	19.82	26.55	0.11	7.67
41.433	19.82	26.55	0.04	7.60
41.463	19.82	26.55	0.04	7.60
41.493	19.77	26.51	0.04	7.60
41.523	19.77	26.51	0.03	7.59
41.552	19.77	26.51	0.03	7.59
41.582	19.67	26.40	0.03	7.59
41.612	19.67	26.40	0.14	7.70
41.642	19.67	26.40	0.14	7.70
41.671	19.67	26.40	0.14	7.70
41.701	19.67	26.40	-0.01	7.54
41.731	19.67	26.40	-0.01	7.54
41.761	19.67	26.40	-0.01	7.54
41.790	19.67	26.40	0.11	7.67
41.820	19.67	26.40	0.11	7.67
41.850	19.77	26.50	0.11	7.67
41.880	19.77	26.50	0.04	7.60
41.909	19.77	26.50	0.04	7.60
41.939	20.08	26.82	0.04	7.60
41.969	20.08	26.82	0.03	7.59
41.999	20.08	26.82	0.03	7.59
42.028	19.88	26.61	0.03	7.59
42.058	19.88	26.61	0.14	7.70
42.088	19.88	26.61	0.14	7.70
42.118	19.89	26.63	0.14	7.70
42.147	19.89	26.63	-0.01	7.55
42.177	19.89	26.63	-0.01	7.55
42.207	19.86	26.59	-0.01	7.55
42.237	19.86	26.59	0.11	7.67
42.266	19.86	26.59	0.11	7.67
42.296	19.79	26.53	0.11	7.67
42.326	19.79	26.53	0.04	7.60
42.356	19.79	26.53	0.04	7.60
42.385	19.85	26.59	0.04	7.60
42.415	19.85	26.59	0.03	7.59
42.445	19.85	26.59	0.03	7.59
42.475	19.53	26.26	0.03	7.59
42.504	19.53	26.26	0.14	7.70
42.534	19.53	26.26	0.14	7.70
42.564	19.56	26.29	0.14	7.70
42.594	19.56	26.29	-0.01	7.55
42.624	19.56	26.29	-0.01	7.55
42.653	19.56	26.30	-0.01	7.55
42.683	19.56	26.30	0.11	7.67
42.713	19.56	26.30	0.11	7.67
42.743	19.50	26.23	0.11	7.67
42.772	19.50	26.23	0.04	7.60
42.802	19.50	26.23	0.04	7.60
42.832	19.24	25.98	0.04	7.60
42.862	19.24	25.98	0.03	7.59
42.891	19.24	25.98	0.03	7.59
42.921	19.53	26.26	0.03	7.59
42.951	19.53	26.26	0.14	7.70
42.981	19.53	26.26	0.14	7.70
43.010	19.40	26.13	0.14	7.70
43.040	19.40	26.13	-0.01	7.55
43.070	19.40	26.13	-0.01	7.55
43.100	19.47	26.20	-0.01	7.55
43.129	19.47	26.20	0.11	7.67
43.159	19.47	26.20	0.11	7.67
43.189	19.74	26.47	0.11	7.67
43.219	19.74	26.47	0.04	7.60
43.249	19.74	26.47	0.04	7.60
43.278	19.92	26.65	0.04	7.60
43.308	19.92	26.65	0.03	7.59
43.338	19.92	26.65	0.03	7.59
43.368	20.06	26.80	0.03	7.59
43.397	20.06	26.80	0.14	7.70
43.427	20.06	26.80	0.14	7.70
43.457	19.68	26.42	0.14	7.70
43.487	19.68	26.42	-0.01	7.54
43.516	19.68	26.42	-0.01	7.54
43.546	19.96	26.69	-0.01	7.54
43.576	19.96	26.69	0.11	7.67
43.606	19.96	26.69	0.11	7.67
43.635	19.93	26.66	0.11	7.67
43.665	19.93	26.66	0.04	7.60
43.695	19.93	26.66	0.04	7.60
43.725	19.51	26.24	0.04	7.60
43.754	19.51	26.24	0.03	7.59
43.784	19.51	26.24	0.03	7.59
43.814	19.90	26.63	0.03	7.59
43.844	19.90	26.63	0.14	7.70
43.874	19.90	26.63	0.14	7.70
43.903	19.88	26.61	0.14	7.70
43.933	19.88	26.61	-0.01	7.54
43.963	19.88	26.61	-0.01	7.54
43.993	19.48	26.22	-0.01	7.54
44.022	19.48	26.22	0.11	7.67
44.052	19.48	26.22	0.11	7.67
44.082	19.61	26.35	0.11	7.67
44.112	19.61	26.35	0.04	7.60
44.141	19.61	26.35	0.04	7.60
44.171	19.71	26.44	0.04	7.60
44.201	19.71	26.44	0.03	7.58
44.231	19.71	26.44	0.03	7.58
44.260	20.36	27.10	0.03	7.58
44.290	20.36	27.10	0.14	7.70
44.320	20.36	27.10	0.14	7.70
44.350	20.01	26.75	0.14	7.70
44.380	20.01	26.75	-0.01	7.54
44.409	20.01	26.75	-0.01	7.54
44.439	20.23	26.96	-0.01	7.54
44.469	20.23	26.96	0.11	7.67
44.499	20.23	26.96	0.11	7.67
44.528	19.72	26.46	0.11	7.67
44.558	19.72	26.46	0.04	7.60
44.588	19.72	26.46	0.04	7.60
44.618	19.71	26.44	0.04	7.60
44.647	19.71	26.44	0.03	7.59
44.677	19.71	26.44	0.03	7.59
44.707	20.12	26.85	0.03	7.59
44.737	20.12	26.85	0.14	7.70
44.766	20.12	26.85	0.14	7.70
44.796	20.10	26.83	0.14	7.70
44.826	20.10	26.83	-0.01	7.55
44.856	20.10	26.83	-0.01	7.55
44.885	19.69	26.42	-0.01	7.55
44.915	19.69	26.42	0.11	7.67
44.945	19.69	26.42	0.11	7.67
44.975	19.62	26.35	0.11	7.67
45.005	19.62	26.35	0.04	7.60
45.034	19.62	26.35	0.04	7.60
45.064	19.75	26.49	0.04	7.60
45.094	19.75	26.49	0.03	7.59
45.124	19.75	26.49	0.03	7.59
45.153	19.70	26.43	0.03	7.59
45.183	19.70	26.43	0.14	7.70
45.213	19.70	26.43	0.14	7.70
45.243	19.56	26.29	0.14	7.70
45.272	19.56	26.29	-0.01	7.55
45.302	19.56	26.29	-0.01	7.55
45.332	20.20	26.93	-0.01	7.55
45.362	20.20	26.93	0.11	7.67
45.391	20.20	26.93	0.11	7.67
45.421	20.16	26.89	0.11	7.67
45.451	20.16	26.89	0.04	7.60
45.481	20.16	26.89	0.04	7.60
45.510	20.22	26.95	0.04	7.60
45.540	20.22	26.95	0.03	7.58
45.570	20.22	26.95	0.03	7.58
45.600	20.09	26.82	0.03	7.58
45.630	20.09	26.82	0.14	7.70
45.659	20.09	26.82	0.14	7.70
45.689	20.21	26.95	0.14	7.70
45.719	20.21	26.95	-0.01	7.55
45.749	20.21	26.95	-0.01	7.55
45.778	20.34	27.08	-0.01	7.55
45.808	20.34	27.08	0.11	7.67
45.838	20.34	27.08	0.11	7.67
45.868	20.05	26.79	0.11	7.67
45.897	20.05	26.79	0.04	7.60
45.927	20.05	26.79	0.04	7.60
45.957	20.25	26.98	0.04	7.60
45.987	20.25	26.98	0.03	7.59
46.016	20.25	26.98	0.03	7.59
46.046	20.29	27.02	0.03	7.59
46.076	20.29	27.02	0.14	7.70
46.106	20.29	27.02	0.14	7.70
46.136	20.28	27.02	0.14	7.70
46.165	20.28	27.02	-0.01	7.55
46.195	20.28	27.02	-0.01	7.55
46.225	20.32	27.05	-0.01	7.55
46.255	20.32	27.05	0.11	7.67
46.284	20.32	27.05	0.11	7.67
46.314	20.42	27.16	0.11	7.67
46.344	20.42	27.16	0.04	7.60
46.374	20.42	27.16	0.04	7.60
46.403	20.43	27.17	0.04	7.60
46.433	20.43	27.17	0.03	7.59
46.463	20.43	27.17	0.03	7.59
46.493	20.30	27.03	0.03	7.59
46.522	20.30	27.03	0.14	7.70
46.552	20.30	27.03	0.14	7.70
46.582	20.07	26.80	0.14	7.70
46.612	20.07	26.80	-0.01	7.55
46.641	20.07	26.80	-0.01	7.55
46.671	20.39	27.13	-0.01	7.55
46.701	20.39	27.13	0.11	7.67
46.731	20.39	27.13	0.11	7.67
46.761	20.31	27.04	0.11	7.67
46.790	20.31	27.04	0.04	7.60
46.820	20.31	27.04	0.04	7.60
46.850	20.29	27.03	0.04	7.60
46.880	20.29	27.03	0.02	7.58
46.909	20.29	27.03	0.02	7.58
46.939	20.40	27.13	0.02	7.58
46.969	20.40	27.13	0.14	7.70
46.999	20.40	27.13	0.14	7.70
47.028	20.22	26.95	0.14	7.70
47.058	20.22	26.95	-0.01	7.55
47.088	20.22	26.95	-0.01	7.55
47.118	20.16	26.89	-0.01	7.55
47.147	20.16	26.89	0.11	7.67
47.177	20.16	26.89	0.11	7.67
47.207	20.13	26.87	0.11	7.67
47.237	20.13	26.87	0.04	7.60
47.267	20.13	26.87	0.04	7.60
47.296	20.19	26.92	0.04	7.60
47.326	20.19	26.92	0.03	7.58
47.356	20.19	26.92	0.03	7.58
47.386	20.32	27.06	0.03	7.58
47.415	20.32	27.06	0.15	7.70
47.445	20.32	27.06	0.15	7.70
47.475	20.30	27.04	0.15	7.70
47.505	20.30	27.04	-0.01	7.55
47.534	20.30	27.04	-0.01	7.55
47.564	20.29	27.02	-0.01	7.55
47.594	20.29	27.02	0.11	7.67
47.624	20.29	27.02	0.11	7.67
47.653	20.19	26.92	0.11	7.67
47.683	20.19	26.92	0.04	7.60
47.713	20.19	26.92	0.04	7.60
47.743	20.24	26.98	0.04	7.60
47.773	20.24	26.98	0.03	7.59
47.802	20.24	26.98	0.03	7.59
47.832	20.17	26.91	0.03	7.59
47.862	20.17	26.91	0.15	7.70
47.892	20.17	26.91	0.15	7.70
47.921	20.19	26.92	0.15	7.70
47.951	20.19	26.92	-0.01	7.55
47.981	20.19	26.92	-0.01	7.55
48.011	20.12	26.85	-0.01	7.55
48.040	20.12	26.85	0.11	7.67
48.070	20.12	26.85	0.11	7.67
48.100	20.07	26.80	0.11	7.67
48.130	20.07	26.80	0.04	7.60
48.159	20.07	26.80	0.04	7.60
48.189	20.04	26.77	0.04	7.60
48.219	20.04	26.77	0.04	7.59
48.249	20.04	26.77	0.04	7.59
48.279	20.02	26.75	0.04	7.59
48.308	20.02	26.75	0.14	7.70
48.338	20.02	26.75	0.14	7.70
48.368	20.10	26.83	0.14	7.70
48.398	20.10	26.83	-0.01	7.55
48.427	20.10	26.83	-0.01	7.55
48.457	20.16	26.90	-0.01	7.55
48.487	20.16	26.90	0.11	7.67
48.517	20.16	26.90	0.11	7.67
48.546	20.25	26.98	0.11	7.67
48.576	20.25	26.98	0.04	7.60
48.606	20.25	26.98	0.04	7.60
48.636	20.09	26.83	0.04	7.60
48.665	20.09	26.83	0.04	7.59
48.695	20.09	26.83	0.04	7.59
48.725	20.11	26.85	0.04	7.59
48.755	20.11	26.85	0.15	7.70
48.784	20.11	26.85	0.15	7.70
48.814	20.08	26.82	0.15	7.70
48.844	20.08	26.82	-0.01	7.54
48.874	20.08	26.82	-0.01	7.54
48.904	20.09	26.82	-0.01	7.54
48.933	20.09	26.82	0.11	7.67
48.963	20.09	26.82	0.11	7.67
48.993	20.00	26.74	0.11	7.67
49.023	20.00	26.74	0.04	7.60
49.052	20.00	26.74	0.04	7.60
49.082	19.91	26.64	0.04	7.60
49.112	19.91	26.64	0.04	7.60
49.142	19.91	26.64	0.04	7.60
49.171	20.11	26.84	0.04	7.60
49.201	20.11	26.84	0.14	7.70
49.231	20.11	26.84	0.14	7.70
49.261	20.17	26.90	0.14	7.70
49.290	20.17	26.90	-0.01	7.55
49.320	20.17	26.90	-0.01	7.55
49.350	20.50	27.23	-0.01	7.55
49.380	20.50	27.23	0.12	7.68
49.410	20.50	27.23	0.12	7.68
49.439	20.47	27.20	0.12	7.68
49.469	20.47	27.20	0.04	7.59
49.499	20.47	27.20	0.04	7.59
49.529	20.47	27.20	0.04	7.59
49.558	20.47	27.20	0.05	7.60
49.588	20.47	27.20	0.05	7.60
49.618	20.36	27.09	0.05	7.60
49.648	20.36	27.09	0.14	7.70
49.677	20.36	27.09	0.14	7.70
49.707	20.28	27.02	0.14	7.70
49.737	20.28	27.02	-0.01	7.55
49.767	20.28	27.02	-0.01	7.55
49.796	20.33	27.06	-0.01	7.55
49.826	20.33	27.06	0.12	7.68
49.856	20.33	27.06	0.12	7.68
49.886	20.46	27.19	0.12	7.68
49.915	20.46	27.19	0.03	7.59
49.945	20.46	27.19	0.03	7.59
49.975	20.37	27.10	0.03	7.59
50.005	20.37	27.10	0.05	7.61
50.035	20.37	27.10	0.05	7.61
50.064	20.54	27.27	0.05	7.61
50.094	20.54	27.27	0.14	7.70
50.124	20.54	27.27	0.14	7.70
50.154	20.56	27.29	0.14	7.70
50.183	20.56	27.29	-0.01	7.55
50.213	20.56	27.29	-0.01	7.55
50.243	20.29	27.03	-0.01	7.55
50.273	20.29	27.03	0.12	7.68
50.302	20.29	27.03	0.12	7.68
50.332	20.54	27.28	0.12	7.68
50.362	20.54	27.28	0.03	7.59
50.392	20.54	27.28	0.03	7.59
50.422	20.45	27.19	0.03	7.59
50.451	20.45	27.19	0.06	7.62
50.481	20.45	27.19	0.06	7.62
50.511	20.41	27.14	0.06	7.62
50.541	20.41	27.14	0.14	7.69
50.570	20.41	27.14	0.14	7.69
50.600	20.39	27.12	0.14	7.69
50.630	20.39	27.12	-0.02	7.54
50.660	20.39	27.12	-0.02	7.54
50.689	20.44	27.17	-0.02	7.54
50.719	20.44	27.17	0.13	7.69
50.749	20.44	27.17	0.13	7.69
50.779	20.57	27.30	0.13	7.69
50.808	20.57	27.30	0.03	7.59
50.838	20.57	27.30	0.03	7.59
50.868	20.61	27.34	0.03	7.59
50.898	20.61	27.34	0.06	7.62
50.927	20.61	27.34	0.06	7.62
50.957	20.54	27.28	0.06	7.62
50.987	20.54	27.28	0.13	7.69
51.017	20.54	27.28	0.13	7.69
51.047	20.48	27.22	0.13	7.69
51.076	20.48	27.22	-0.01	7.54
51.106	20.48	27.22	-0.01	7.54
51.136	20.47	27.20	-0.01	7.54
51.166	20.47	27.20	0.13	7.68
51.195	20.47	27.20	0.13	7.68
51.225	20.45	27.19	0.13	7.68
51.255	20.45	27.19	0.03	7.59
51.285	20.45	27.19	0.03	7.59
51.314	20.44	27.18	0.03	7.59
51.344	20.44	27.18	0.06	7.62
51.374	20.44	27.18	0.06	7.62
51.404	20.31	27.04	0.06	7.62
51.433	20.31	27.04	0.12	7.68
51.463	20.31	27.04	0.12	7.68
51.493	20.03	26.77	0.12	7.68
51.523	20.03	26.77	-0.02	7.54
51.552	20.03	26.77	-0.02	7.54
51.582	20.37	27.10	-0.02	7.54
51.612	20.37	27.10	0.13	7.69
51.642	20.37	27.10	0.13	7.69
51.672	20.13	26.86	0.13	7.69
51.701	20.13	26.86	0.03	7.59
51.731	20.13	26.86	0.03	7.59
51.761	20.21	26.95	0.03	7.59
51.791	20.21	26.95	0.07	7.63
51.820	20.21	26.95	0.07	7.63
51.850	20.17	26.91	0.07	7.63
51.880	20.17	26.91	0.12	7.68
51.910	20.17	26.91	0.12	7.68
51.939	19.95	26.69	0.12	7.68
51.969	19.95	26.69	-0.01	7.55
51.999	19.95	26.69	-0.01	7.55
52.029	20.35	27.08	-0.01	7.55
52.058	20.35	27.08	0.13	7.69
52.088	20.35	27.08	0.13	7.69
52.118	20.25	26.98	0.13	7.69
52.148	20.25	26.98	0.02	7.58
52.178	20.25	26.98	0.02	7.58
52.207	20.36	27.09	0.02	7.58
52.237	20.36	27.09	0.08	7.64
52.267	20.36	27.09	0.08	7.64
52.297	20.28	27.02	0.08	7.64
52.326	20.28	27.02	0.11	7.67
52.356	20.28	27.02	0.11	7.67
52.386	20.29	27.03	0.11	7.67
52.416	20.29	27.03	-0.01	7.54
52.445	20.29	27.03	-0.01	7.54
52.475	20.25	26.99	-0.01	7.54
52.505	20.25	26.99	0.13	7.69
52.535	20.25	26.99	0.13	7.69
52.564	20.10	26.84	0.13	7.69
52.594	20.10	26.84	0.02	7.58
52.624	20.10	26.84	0.02	7.58
52.654	20.65	27.38	0.02	7.58
52.683	20.65	27.38	0.08	7.64
52.713	20.65	27.38	0.08	7.64
52.743	20.88	27.61	0.08	7.64
52.773	20.88	27.61	0.10	7.66
52.803	20.88	27.61	0.10	7.66
52.832	20.93	27.66	0.10	7.66
52.862	20.93	27.66	-0.02	7.54
52.892	20.93	27.66	-0.02	7.54
52.922	20.90	27.64	-0.02	7.54
52.951	20.90	27.64	0.14	7.70
52.981	20.90	27.64	0.14	7.70
53.011	20.87	27.60	0.14	7.70
53.041	20.87	27.60	0.02	7.58
53.070	20.87	27.60	0.02	7.58
53.100	20.69	27.42	0.02	7.58
53.130	20.69	27.42	0.09	7.64
53.160	20.69	27.42	0.09	7.64
53.189	20.68	27.42	0.09	7.64
53.219	20.68	27.42	0.09	7.65
53.249	20.68	27.42	0.09	7.65
53.279	20.75	27.48	0.09	7.65
53.309	20.75	27.48	-0.01	7.55
53.338	20.75	27.48	-0.01	7.55
53.368	20.81	27.54	-0.01	7.55
53.398	20.81	27.54	0.14	7.70
53.428	20.81	27.54	0.14	7.70
53.457	20.65	27.39	0.14	7.70
53.487	20.65	27.39	0.01	7.57
53.517	20.65	27.39	0.01	7.57
53.547	20.75	27.48	0.01	7.57
53.576	20.75	27.48	0.09	7.65
53.606	20.75	27.48	0.09	7.65
53.636	20.58	27.31	0.09	7.65
53.666	20.58	27.31	0.08	7.64
53.695	20.58	27.31	0.08	7.64
53.725	20.52	27.26	0.08	7.64
53.755	20.52	27.26	-0.01	7.55
53.785	20.52	27.26	-0.01	7.55
53.814	20.52	27.25	-0.01	7.55
53.844	20.52	27.25	0.14	7.70
53.874	20.52	27.25	0.14	7.70
53.904	20.46	27.19	0.14	7.70
53.934	20.46	27.19	0.01	7.57
53.963	20.46	27.19	0.01	7.57
53.993	20.51	27.24	0.01	7.57
54.023	20.51	27.24	0.10	7.65
54.053	20.51	27.24	0.10	7.65
54.082	20.33	27.06	0.10	7.65
54.112	20.33	27.06	0.07	7.63
54.142	20.33	27.06	0.07	7.63
54.172	20.30	27.03	0.07	7.63
54.201	20.30	27.03	-0.01	7.55
54.231	20.30	27.03	-0.01	7.55
54.261	20.24	26.97	-0.01	7.55
54.291	20.24	26.97	0.15	7.70
54.320	20.24	26.97	0.15	7.70
54.350	20.34	27.07	0.15	7.70
54.380	20.34	27.07	0.01	7.57
54.410	20.34	27.07	0.01	7.57
54.440	20.33	27.06	0.01	7.57
54.469	20.33	27.06	0.10	7.66
54.499	20.33	27.06	0.10	7.66
54.529	20.25	26.99	0.10	7.66
54.559	20.25	26.99	0.06	7.62
54.588	20.25	26.99	0.06	7.62
54.618	20.25	26.98	0.06	7.62
54.648	20.25	26.98	-0.00	7.56
54.678	20.25	26.98	-0.00	7.56
54.707	20.16	26.89	-0.00	7.56
54.737	20.16	26.89	0.14	7.70
54.767	20.16	26.89	0.14	7.70
54.797	20.31	27.04	0.14	7.70
54.826	20.31	27.04	-0.00	7.56
54.856	20.31	27.04	-0.00	7.56
54.886	20.29	27.02	-0.00	7.56
54.916	20.29	27.02	0.10	7.66
54.945	20.29	27.02	0.10	7.66
54.975	20.14	26.88	0.10	7.66
55.005	20.14	26.88	0.06	7.62
55.035	20.14	26.88	0.06	7.62
55.064	19.98	26.71	0.06	7.62
55.094	19.98	26.71	0.00	7.56
55.124	19.98	26.71	0.00	7.56
55.154	20.21	26.95	0.00	7.56
55.183	20.21	26.95	0.14	7.70
55.213	20.21	26.95	0.14	7.70
55.243	20.17	26.91	0.14	7.70
55.273	20.17	26.91	-0.00	7.55
55.303	20.17	26.91	-0.00	7.55
55.332	20.28	27.01	-0.00	7.55
55.362	20.28	27.01	0.10	7.66
55.392	20.28	27.01	0.10	7.66
55.422	20.34	27.07	0.10	7.66
55.451	20.34	27.07	0.05	7.61
55.481	20.34	27.07	0.05	7.61
55.511	20.33	27.07	0.05	7.61
55.541	20.33	27.07	0.01	7.57
55.570	20.33	27.07	0.01	7.57
55.600	20.25	26.98	0.01	7.57
55.630	20.25	26.98	0.14	7.70
55.660	20.25	26.98	0.14	7.70
55.689	20.00	26.73	0.14	7.70
55.719	20.00	26.73	-0.00	7.56
55.749	20.00	26.73	-0.00	7.56
55.779	20.04	26.77	-0.00	7.56
55.809	20.04	26.77	0.11	7.67
55.838	20.04	26.77	0.11	7.67
55.868	20.48	27.21	0.11	7.67
55.898	20.48	27.21	0.05	7.61
55.928	20.48	27.21	0.05	7.61
55.957	20.58	27.31	0.05	7.61
55.987	20.58	27.31	0.02	7.58
56.017	20.58	27.31	0.02	7.58
56.047	20.18	26.91	0.02	7.58
56.076	20.18	26.91	0.14	7.70
56.106	20.18	26.91	0.14	7.70
56.136	20.16	26.89	0.14	7.70
56.166	20.16	26.89	-0.01	7.55
56.195	20.16	26.89	-0.01	7.55
56.225	19.81	26.54	-0.01	7.55
56.255	19.81	26.54	0.11	7.67
56.285	19.81	26.54	0.11	7.67
56.315	19.82	26.55	0.11	7.67
56.344	19.82	26.55	0.04	7.60
56.374	19.82	26.55	0.04	7.60
56.404	19.79	26.53	0.04	7.60
56.434	19.79	26.53	0.03	7.59
56.463	19.79	26.53	0.03	7.59
56.493	19.91	26.65	0.03	7.59
56.523	19.91	26.65	0.14	7.70
56.553	19.91	26.65	0.14	7.70
56.582	19.91	26.64	0.14	7.70
56.612	19.91	26.64	-0.01	7.55
56.642	19.91	26.64	-0.01	7.55
56.672	20.04	26.78	-0.01	7.55
56.701	20.04	26.78	0.11	7.67
56.731	20.04	26.78	0.11	7.67
56.761	19.49	26.22	0.11	7.67
56.791	19.49	26.22	0.03	7.59
56.820	19.49	26.22	0.03	7.59
56.850	19.47	26.20	0.03	7.59
56.880	19.47	26.20	0.04	7.59
56.910	19.47	26.20	0.04	7.59
56.940	19.76	26.50	0.04	7.59
56.969	19.76	26.50	0.14	7.70
56.999	19.76	26.50	0.14	7.70
57.029	19.67	26.40	0.14	7.70
57.059	19.67	26.40	-0.01	7.55
57.088	19.67	26.40	-0.01	7.55
57.118	20.06	26.79	-0.01	7.55
57.148	20.06	26.79	0.11	7.67
57.178	20.06	26.79	0.11	7.67
57.207	19.99	26.72	0.11	7.67
57.237	19.99	26.72	0.03	7.59
57.267	19.99	26.72	0.03	7.59
57.297	19.82	26.56	0.03	7.59
57.326	19.82	26.56	0.05	7.60
57.356	19.82	26.56	0.05	7.60
57.386	20.00	26.73	0.05	7.60
57.416	20.00	26.73	0.14	7.69
57.445	20.00	26.73	0.14	7.69
57.475	19.88	26.62	0.14	7.69
57.505	19.88	26.62	-0.02	7.54
57.535	19.88	26.62	-0.02	7.54
57.565	19.96	26.69	-0.02	7.54
57.594	19.96	26.69	0.12	7.68
57.624	19.96	26.69	0.12	7.68
57.654	19.90	26.64	0.12	7.68
57.684	19.90	26.64	0.03	7.59
57.713	19.90	26.64	0.03	7.59
57.743	19.53	26.26	0.03	7.59
57.773	19.53	26.26	0.06	7.62
57.803	19.53	26.26	0.06	7.62
57.832	19.95	26.68	0.06	7.62
57.862	19.95	26.68	0.14	7.69
57.892	19.95	26.68	0.14	7.69
57.922	19.84	26.57	0.14	7.69
57.951	19.84	26.57	-0.01	7.54
57.981	19.84	26.57	-0.01	7.54
58.011	19.95	26.69	-0.01	7.54
58.041	19.95	26.69	0.12	7.68
58.070	19.95	26.69	0.12	7.68
58.100	19.95	26.68	0.12	7.68
58.130	19.95	26.68	0.03	7.58
58.160	19.95	26.68	0.03	7.58
58.190	20.01	26.74	0.03	7.58
58.219	20.01	26.74	0.06	7.62
58.249	20.01	26.74	0.06	7.62
58.279	20.15	26.88	0.06	7.62
58.309	20.15	26.88	0.13	7.69
58.338	20.15	26.88	0.13	7.69
58.368	19.99	26.72	0.13	7.69
58.398	19.99	26.72	-0.01	7.54
58.428	19.99	26.72	-0.01	7.54
58.457	19.82	26.55	-0.01	7.54
58.487	19.82	26.55	0.13	7.69
58.517	19.82	26.55	0.13	7.69
58.547	19.92	26.65	0.13	7.69
58.576	19.92	26.65	0.03	7.58
58.606	19.92	26.65	0.03	7.58
58.636	19.64	26.37	0.03	7.58
58.666	19.64	26.37	0.07	7.63
58.696	19.64	26.37	0.07	7.63
58.725	19.69	26.42	0.07	7.63
58.755	19.69	26.42	0.12	7.68
58.785	19.69	26.42	0.12	7.68
58.815	19.72	26.45	0.12	7.68
58.844	19.72	26.45	-0.01	7.54
58.874	19.72	26.45	-0.01	7.54
58.904	19.75	26.48	-0.01	7.54
58.934	19.75	26.48	0.13	7.69
58.963	19.75	26.48	0.13	7.69
58.993	19.71	26.44	0.13	7.69
59.023	19.71	26.44	0.02	7.58
59.053	19.71	26.44	0.02	7.58
59.082	19.70	26.43	0.02	7.58
59.112	19.70	26.43	0.07	7.63
59.142	19.70	26.43	0.07	7.63
59.172	19.75	26.48	0.07	7.63
59.201	19.75	26.48	0.12	7.68
59.231	19.75	26.48	0.12	7.68
59.261	19.85	26.58	0.12	7.68
59.291	19.85	26.58	-0.01	7.54
59.321	19.85	26.58	-0.01	7.54
59.350	19.95	26.68	-0.01	7.54
59.380	19.95	26.68	0.13	7.69
59.410	19.95	26.68	0.13	7.69
59.440	20.08	26.81	0.13	7.69
59.469	20.08	26.81	0.02	7.58
59.499	20.08	26.81	0.02	7.58
59.529	20.13	26.87	0.02	7.58
59.559	20.13	26.87	0.08	7.64
59.588	20.13	26.87	0.08	7.64
59.618	20.16	26.90	0.08	7.64
59.648	20.16	26.90	0.11	7.67
59.678	20.16	26.90	0.11	7.67
59.707	20.29	27.03	0.11	7.67
59.737	20.29	27.03	-0.02	7.54
59.767	20.29	27.03	-0.02	7.54
59.797	19.99	26.72	-0.02	7.54
59.826	19.99	26.72	0.14	7.69
59.856	19.99	26.72	0.14	7.69
59.886	20.11	26.84	0.14	7.69
59.916	20.11	26.84	0.02	7.58
59.946	20.11	26.84	0.02	7.58
59.975	20.27	27.01	0.02	7.58
60.005	20.27	27.01	0.08	7.64
60.035	20.27	27.01	0.08	7.64
60.065	20.07	26.80	0.08	7.64
60.094	20.07	26.80	0.10	7.66
60.124	20.07	26.80	0.10	7.66
60.154	19.86	26.59	0.10	7.66
60.184	19.86	26.59	-0.01	7.54
60.213	19.86	26.59	-0.01	7.54
60.243	19.93	26.67	-0.01	7.54
60.273	19.93	26.67	0.14	7.70
60.303	19.93	26.67	0.14	7.70
60.332	19.86	26.59	0.14	7.70
60.362	19.86	26.59	0.02	7.58
60.392	19.86	26.59	0.02	7.58
60.422	19.50	26.23	0.02	7.58
60.452	19.50	26.23	0.09	7.65
60.481	19.50	26.23	0.09	7.65
60.511	20.01	26.74	0.09	7.65
60.541	20.01	26.74	0.09	7.65
60.571	20.01	26.74	0.09	7.65
60.600	19.93	26.66	0.09	7.65
60.630	19.93	26.66	-0.01	7.54
60.660	19.93	26.66	-0.01	7.54
60.690	19.96	26.69	-0.01	7.54
60.719	19.96	26.69	0.14	7.70
60.749	19.96	26.69	0.14	7.70
60.779	19.88	26.62	0.14	7.70
60.809	19.88	26.62	0.01	7.57
60.838	19.88	26.62	0.01	7.57
60.868	20.06	26.79	0.01	7.57
60.898	20.06	26.79	0.09	7.65
60.928	20.06	26.79	0.09	7.65
60.957	19.99	26.72	0.09	7.65
60.987	19.99	26.72	0.09	7.64
61.017	19.99	26.72	0.09	7.64
61.047	20.56	27.29	0.09	7.64
61.077	20.56	27.29	-0.01	7.54
61.106	20.56	27.29	-0.01	7.54
61.136	20.10	26.84	-0.01	7.54
61.166	20.10	26.84	0.14	7.70
61.196	20.10	26.84	0.14	7.70
61.225	20.25	26.98	0.14	7.70
61.255	20.25	26.98	0.01	7.57
61.285	20.25	26.98	0.01	7.57
61.315	20.27	27.01	0.01	7.57
61.344	20.27	27.01	0.09	7.65
61.374	20.27	27.01	0.09	7.65
61.404	20.12	26.86	0.09	7.65
61.434	20.12	26.86	0.08	7.64
61.463	20.12	26.86	0.08	7.64
61.493	19.90	26.63	0.08	7.64
61.523	19.90	26.63	-0.01	7.55
61.553	19.90	26.63	-0.01	7.55
61.583	20.26	27.00	-0.01	7.55
61.612	20.26	27.00	0.14	7.70
61.642	20.26	27.00	0.14	7.70
61.672	20.03	26.76	0.14	7.70
61.702	20.03	26.76	0.01	7.57
61.731	20.03	26.76	0.01	7.57
61.761	20.17	26.90	0.01	7.57
61.791	20.17	26.90	0.09	7.65
61.821	20.17	26.90	0.09	7.65
61.850	20.09	26.83	0.09	7.65
61.880	20.09	26.83	0.08	7.64
61.910	20.09	26.83	0.08	7.64
61.940	20.24	26.97	0.08	7.64
61.969	20.24	26.97	-0.01	7.55
61.999	20.24	26.97	-0.01	7.55
62.029	20.13	26.86	-0.01	7.55
62.059	20.13	26.86	0.14	7.70
62.089	20.13	26.86	0.14	7.70
62.118	20.21	26.95	0.14	7.70
62.148	20.21	26.95	0.01	7.57
62.178	20.21	26.95	0.01	7.57
62.208	19.77	26.51	0.01	7.57
62.237	19.77	26.51	0.10	7.65
62.267	19.77	26.51	0.10	7.65
62.297	19.72	26.45	0.10	7.65
62.327	19.72	26.45	0.07	7.63
62.356	19.72	26.45	0.07	7.63
62.386	19.98	26.71	0.07	7.63
62.416	19.98	26.71	-0.01	7.55
62.446	19.98	26.71	-0.01	7.55
62.475	19.88	26.61	-0.01	7.55
62.505	19.88	26.61	0.15	7.70
62.535	19.88	26.61	0.15	7.70
62.565	19.86	26.60	0.15	7.70
62.594	19.86	26.60	0.00	7.56
62.624	19.86	26.60	0.00	7.56
62.654	19.81	26.54	0.00	7.56
62.684	19.81	26.54	0.10	7.66
62.713	19.81	26.54	0.10	7.66
62.743	19.80	26.53	0.10	7.66
62.773	19.80	26.53	0.06	7.62
62.803	19.80	26.53	0.06	7.62
62.832	19.89	26.63	0.06	7.62
62.862	19.89	26.63	-0.00	7.55
62.892	19.89	26.63	-0.00	7.55
62.922	19.94	26.67	-0.00	7.55
62.951	19.94	26.67	0.14	7.70
62.981	19.94	26.67	0.14	7.70
63.011	19.85	26.58	0.14	7.70
63.041	19.85	26.58	-0.00	7.56
63.071	19.85	26.58	-0.00	7.56
63.100	19.90	26.64	-0.00	7.56
63.130	19.90	26.64	0.10	7.66
63.160	19.90	26.64	0.10	7.66
63.189	20.01	26.75	0.10	7.66
63.219	20.01	26.75	0.06	7.62
63.249	20.01	26.75	0.06	7.62
63.279	19.92	26.65	0.06	7.62
63.309	19.92	26.65	-0.00	7.56
63.338	19.92	26.65	-0.00	7.56
63.368	20.33	27.06	-0.00	7.56
63.398	20.33	27.06	0.15	7.70
63.427	20.33	27.06	0.15	7.70
63.457	20.02	26.75	0.15	7.70
63.487	20.02	26.75	0.00	7.56
63.517	20.02	26.75	0.00	7.56
63.547	20.13	26.87	0.00	7.56
63.576	20.13	26.87	0.10	7.66
63.606	20.13	26.87	0.10	7.66
63.636	20.30	27.04	0.10	7.66
63.666	20.30	27.04	0.06	7.62
63.695	20.30	27.04	0.06	7.62
63.725	19.62	26.36	0.06	7.62
63.755	19.62	26.36	0.01	7.57
63.785	19.62	26.36	0.01	7.57
63.814	19.95	26.69	0.01	7.57
63.844	19.95	26.69	0.14	7.70
63.874	19.95	26.69	0.14	7.70
63.904	20.19	26.92	0.14	7.70
63.933	20.19	26.92	-0.00	7.56
63.963	20.19	26.92	-0.00	7.56
63.993	20.41	27.15	-0.00	7.56
64.023	20.41	27.15	0.10	7.66
64.053	20.41	27.15	0.10	7.66
64.082	20.25	26.98	0.10	7.66
64.112	20.25	26.98	0.05	7.61
64.142	20.25	26.98	0.05	7.61
64.172	20.34	27.07	0.05	7.61
64.201	20.34	27.07	0.01	7.57
64.231	20.34	27.07	0.01	7.57
64.261	20.01	26.74	0.01	7.57
64.291	20.01	26.74	0.14	7.70
64.320	20.01	26.74	0.14	7.70
64.350	20.34	27.07	0.14	7.70
64.380	20.34	27.07	-0.00	7.56
64.410	20.34	27.07	-0.00	7.56
64.439	20.14	26.87	-0.00	7.56
64.469	20.14	26.87	0.10	7.66
64.499	20.14	26.87	0.10	7.66
64.529	19.70	26.43	0.10	7.66
64.558	19.70	26.43	0.05	7.61
64.588	19.70	26.43	0.05	7.61
64.618	20.08	26.82	0.05	7.61
64.648	20.08	26.82	0.01	7.57
64.677	20.08	26.82	0.01	7.57
64.707	19.87	26.61	0.01	7.57
64.737	19.87	26.61	0.14	7.70
64.767	19.87	26.61	0.14	7.70
64.797	19.87	26.60	0.14	7.70
64.826	19.87	26.60	-0.00	7.55
64.856	19.87	26.60	-0.00	7.55
64.886	19.71	26.45	-0.00	7.55
64.916	19.71	26.45	0.10	7.66
64.945	19.71	26.45	0.10	7.66
64.975	19.80	26.53	0.10	7.66
65.005	19.80	26.53	0.05	7.61
65.035	19.80	26.53	0.05	7.61
65.064	19.75	26.49	0.05	7.61
65.094	19.75	26.49	0.01	7.57
65.124	19.75	26.49	0.01	7.57
65.154	19.86	26.59	0.01	7.57
65.183	19.86	26.59	0.14	7.70
65.213	19.86	26.59	0.14	7.70
65.243	19.86	26.59	0.14	7.70
65.273	19.86	26.59	-0.01	7.55
65.302	19.86	26.59	-0.01	7.55
65.332	20.08	26.81	-0.01	7.55
65.362	20.08	26.81	0.10	7.66
65.392	20.08	26.81	0.10	7.66
65.422	20.12	26.85	0.10	7.66
65.451	20.12	26.85	0.04	7.60
65.481	20.12	26.85	0.04	7.60
65.511	20.26	26.99	0.04	7.60
65.541	20.26	26.99	0.02	7.58
65.570	20.26	26.99	0.02	7.58
65.600	19.92	26.65	0.02	7.58
65.630	19.92	26.65	0.14	7.70
65.660	19.92	26.65	0.14	7.70
65.689	19.98	26.71	0.14	7.70
65.719	19.98	26.71	-0.00	7.55
65.749	19.98	26.71	-0.00	7.55
65.779	19.67	26.41	-0.00	7.55
65.808	19.67	26.41	0.11	7.67
65.838	19.67	26.41	0.11	7.67
65.868	20.06	26.79	0.11	7.67
65.898	20.06	26.79	0.04	7.60
65.928	20.06	26.79	0.04	7.60
65.957	20.68	27.41	0.04	7.60
65.987	20.68	27.41	0.02	7.58
66.017	20.68	27.41	0.02	7.58
66.047	20.14	26.87	0.02	7.58
66.076	20.14	26.87	0.14	7.70
66.106	20.14	26.87	0.14	7.70
66.136	20.22	26.95	0.14	7.70
66.166	20.22	26.95	-0.01	7.54
66.195	20.22	26.95	-0.01	7.54
66.225	20.07	26.80	-0.01	7.54
66.255	20.07	26.80	0.11	7.67
66.285	20.07	26.80	0.11	7.67
66.314	20.84	27.57	0.11	7.67
66.344	20.84	27.57	0.04	7.60
66.374	20.84	27.57	0.04	7.60
66.404	20.93	27.66	0.04	7.60
66.433	20.93	27.66	0.03	7.59
66.463	20.93	27.66	0.03	7.59
66.493	21.18	27.92	0.03	7.59
66.523	21.18	27.92	0.14	7.70
66.553	21.18	27.92	0.14	7.70
66.582	20.76	27.50	0.14	7.70
66.612	20.76	27.50	-0.01	7.55
66.642	20.76	27.50	-0.01	7.55
66.672	20.25	26.98	-0.01	7.55
66.701	20.25	26.98	0.11	7.67
66.731	20.25	26.98	0.11	7.67
66.761	20.36	27.10	0.11	7.67
66.791	20.36	27.10	0.04	7.60
66.820	20.36	27.10	0.04	7.60
66.850	20.57	27.31	0.04	7.60
66.880	20.57	27.31	0.03	7.59
66.910	20.57	27.31	0.03	7.59
66.939	20.37	27.10	0.03	7.59
66.969	20.37	27.10	0.14	7.69
66.999	20.37	27.10	0.14	7.69
67.029	20.18	26.91	0.14	7.69
67.059	20.18	26.91	-0.01	7.55
67.088	20.18	26.91	-0.01	7.55
67.118	20.11	26.84	-0.01	7.55
67.148	20.11	26.84	0.12	7.68
67.178	20.11	26.84	0.12	7.68
67.207	20.38	27.12	0.12	7.68
67.237	20.38	27.12	0.04	7.59
67.267	20.38	27.12	0.04	7.59
67.297	20.52	27.25	0.04	7.59
67.326	20.52	27.25	0.03	7.59
67.356	20.52	27.25	0.03	7.59
67.386	20.24	26.97	0.03	7.59
67.416	20.24	26.97	0.14	7.70
67.445	20.24	26.97	0.14	7.70
67.475	20.17	26.90	0.14	7.70
67.505	20.17	26.90	-0.01	7.55
67.535	20.17	26.90	-0.01	7.55
67.564	20.18	26.91	-0.01	7.55
67.594	20.18	26.91	0.11	7.67
67.624	20.18	26.91	0.11	7.67
67.654	20.24	26.97	0.11	7.67
67.684	20.24	26.97	0.04	7.59
67.713	20.24	26.97	0.04	7.59
67.743	20.20	26.93	0.04	7.59
67.773	20.20	26.93	0.04	7.60
67.803	20.20	26.93	0.04	7.60
67.832	20.31	27.05	0.04	7.60
67.862	20.31	27.05	0.14	7.70
67.892	20.31	27.05	0.14	7.70
67.922	20.18	26.91	0.14	7.70
67.951	20.18	26.91	-0.01	7.55
67.981	20.18	26.91	-0.01	7.55
68.011	20.12	26.86	-0.01	7.55
68.041	20.12	26.86	0.11	7.67
68.070	20.12	26.86	0.11	7.67
68.100	20.37	27.10	0.11	7.67
68.130	20.37	27.10	0.04	7.60
68.160	20.37	27.10	0.04	7.60
68.190	20.13	26.87	0.04	7.60
68.219	20.13	26.87	0.04	7.60
68.249	20.13	26.87	0.04	7.60
68.279	20.05	26.79	0.04	7.60
68.309	20.05	26.79	0.14	7.70
68.338	20.05	26.79	0.14	7.70
68.368	19.96	26.70	0.14	7.70
68.398	19.96	26.70	-0.01	7.54
68.428	19.96	26.70	-0.01	7.54
68.457	20.03	26.77	-0.01	7.54
68.487	20.03	26.77	0.12	7.68
68.517	20.03	26.77	0.12	7.68
68.547	19.97	26.70	0.12	7.68
68.576	19.97	26.70	0.03	7.59
68.606	19.97	26.70	0.03	7.59
68.636	20.29	27.03	0.03	7.59
68.666	20.29	27.03	0.05	7.60
68.695	20.29	27.03	0.05	7.60
68.725	20.01	26.74	0.05	7.60
68.755	20.01	26.74	0.14	7.70
68.785	20.01	26.74	0.14	7.70
68.815	20.14	26.87	0.14	7.70
68.844	20.14	26.87	-0.01	7.55
68.874	20.14	26.87	-0.01	7.55
68.904	20.61	27.34	-0.01	7.55
68.934	20.61	27.34	0.12	7.68
68.963	20.61	27.34	0.12	7.68
68.993	20.29	27.03	0.12	7.68
69.023	20.29	27.03	0.03	7.59
69.053	20.29	27.03	0.03	7.59
69.082	20.25	26.99	0.03	7.59
69.112	20.25	26.99	0.05	7.61
69.142	20.25	26.99	0.05	7.61
69.172	20.28	27.02	0.05	7.61
69.201	20.28	27.02	0.14	7.69
69.231	20.28	27.02	0.14	7.69
69.261	20.22	26.95	0.14	7.69
69.291	20.22	26.95	-0.01	7.54
69.320	20.22	26.95	-0.01	7.54
69.350	20.22	26.95	-0.01	7.54
69.380	20.22	26.95	0.12	7.68
69.410	20.22	26.95	0.12	7.68
69.440	20.14	26.87	0.12	7.68
69.469	20.14	26.87	0.03	7.59
69.499	20.14	26.87	0.03	7.59
69.529	20.03	26.77	0.03	7.59
69.559	20.03	26.77	0.05	7.61
69.588	20.03	26.77	0.05	7.61
69.618	19.99	26.73	0.05	7.61
69.648	19.99	26.73	0.14	7.70
69.678	19.99	26.73	0.14	7.70
69.707	19.94	26.67	0.14	7.70
69.737	19.94	26.67	-0.02	7.54
69.767	19.94	26.67	-0.02	7.54
69.797	20.11	26.84	-0.02	7.54
69.826	20.11	26.84	0.12	7.68
69.856	20.11	26.84	0.12	7.68
69.886	20.00	26.74	0.12	7.68
69.916	20.00	26.74	0.03	7.59
69.945	20.00	26.74	0.03	7.59
69.975	20.05	26.78	0.03	7.59
70.005	20.05	26.78	0.06	7.62
70.035	20.05	26.78	0.06	7.62
70.065	20.47	27.20	0.06	7.62
70.094	20.47	27.20	0.13	7.69
70.124	20.47	27.20	0.13	7.69
70.154	20.30	27.04	0.13	7.69
70.184	20.30	27.04	-0.02	7.54
70.213	20.30	27.04	-0.02	7.54
70.243	20.25	26.98	-0.02	7.54
70.273	20.25	26.98	0.13	7.69
70.303	20.25	26.98	0.13	7.69
70.332	20.19	26.92	0.13	7.69
70.362	20.19	26.92	0.03	7.59
70.392	20.19	26.92	0.03	7.59
70.422	20.40	27.13	0.03	7.59
70.451	20.40	27.13	0.06	7.62
70.481	20.40	27.13	0.06	7.62
70.511	20.34	27.07	0.06	7.62
70.541	20.34	27.07	0.13	7.69
70.571	20.34	27.07	0.13	7.69
70.600	20.30	27.04	0.13	7.69
70.630	20.30	27.04	-0.02	7.54
70.660	20.30	27.04	-0.02	7.54
70.690	20.05	26.78	-0.02	7.54
70.719	20.05	26.78	0.13	7.69
70.749	20.05	26.78	0.13	7.69
70.779	20.31	27.04	0.13	7.69
70.809	20.31	27.04	0.03	7.59
70.838	20.31	27.04	0.03	7.59
70.868	20.24	26.97	0.03	7.59
70.898	20.24	26.97	0.06	7.62
70.928	20.24	26.97	0.06	7.62
70.957	19.67	26.40	0.06	7.62
70.987	19.67	26.40	0.12	7.68
71.017	19.67	26.40	0.12	7.68
71.047	20.49	27.23	0.12	7.68
71.076	20.49	27.23	-0.02	7.54
71.106	20.49	27.23	-0.02	7.54
71.136	20.70	27.43	-0.02	7.54
71.166	20.70	27.43	0.13	7.69
71.196	20.70	27.43	0.13	7.69
71.225	20.61	27.34	0.13	7.69
71.255	20.61	27.34	0.03	7.59
71.285	20.61	27.34	0.03	7.59
71.315	20.51	27.24	0.03	7.59
71.344	20.51	27.24	0.07	7.63
71.374	20.51	27.24	0.07	7.63
71.404	20.33	27.06	0.07	7.63
71.434	20.33	27.06	0.12	7.68
71.463	20.33	27.06	0.12	7.68
71.493	20.40	27.14	0.12	7.68
71.523	20.40	27.14	-0.02	7.54
71.553	20.40	27.14	-0.02	7.54
71.582	19.91	26.65	-0.02	7.54
71.612	19.91	26.65	0.13	7.69
71.642	19.91	26.65	0.13	7.69
71.672	19.70	26.44	0.13	7.69
71.701	19.70	26.44	0.03	7.59
71.731	19.70	26.44	0.03	7.59
71.761	19.92	26.66	0.03	7.59
71.791	19.92	26.66	0.07	7.63
71.821	19.92	26.66	0.07	7.63
71.850	19.90	26.64	0.07	7.63
71.880	19.90	26.64	0.11	7.67
71.910	19.90	26.64	0.11	7.67
71.940	20.09	26.83	0.11	7.67
71.969	20.09	26.83	-0.02	7.54
71.999	20.09	26.83	-0.02	7.54
72.029	19.60	26.33	-0.02	7.54
72.059	19.60	26.33	0.13	7.69
72.088	19.60	26.33	0.13	7.69
72.118	20.32	27.05	0.13	7.69
72.148	20.32	27.05	0.02	7.58
72.178	20.32	27.05	0.02	7.58
72.207	20.42	27.16	0.02	7.58
72.237	20.42	27.16	0.08	7.64
72.267	20.42	27.16	0.08	7.64
72.297	20.52	27.25	0.08	7.64
72.326	20.52	27.25	0.11	7.67
72.356	20.52	27.25	0.11	7.67
72.386	20.55	27.29	0.11	7.67
72.416	20.55	27.29	-0.01	7.54
72.446	20.55	27.29	-0.01	7.54
72.475	20.20	26.93	-0.01	7.54
72.505	20.20	26.93	0.14	7.70
72.535	20.20	26.93	0.14	7.70
72.565	20.33	27.06	0.14	7.70
72.594	20.33	27.06	0.02	7.58
72.624	20.33	27.06	0.02	7.58
72.654	20.44	27.17	0.02	7.58
72.684	20.44	27.17	0.09	7.64
72.713	20.44	27.17	0.09	7.64
72.743	20.39	27.12	0.09	7.64
72.773	20.39	27.12	0.11	7.67
72.803	20.39	27.12	0.11	7.67
72.832	20.63	27.36	0.11	7.67
72.862	20.63	27.36	-0.01	7.54
72.892	20.63	27.36	-0.01	7.54
72.922	20.75	27.48	-0.01	7.54
72.952	20.75	27.48	0.14	7.70
72.981	20.75	27.48	0.14	7.70
73.011	20.56	27.30	0.14	7.70
73.041	20.56	27.30	0.02	7.58
73.071	20.56	27.30	0.02	7.58
73.100	19.99	26.73	0.02	7.58
73.130	19.99	26.73	0.09	7.64
73.160	19.99	26.73	0.09	7.64
73.190	20.32	27.05	0.09	7.64
73.219	20.32	27.05	0.10	7.66
73.249	20.32	27.05	0.10	7.66
73.279	20.02	26.75	0.10	7.66
73.309	20.02	26.75	-0.01	7.54
73.338	20.02	26.75	-0.01	7.54
73.368	19.98	26.71	-0.01	7.54
73.398	19.98	26.71	0.14	7.70
73.428	19.98	26.71	0.14	7.70
73.457	19.92	26.65	0.14	7.70
73.487	19.92	26.65	0.01	7.57
73.517	19.92	26.65	0.01	7.57
73.547	20.00	26.73	0.01	7.57
73.577	20.00	26.73	0.09	7.65
73.606	20.00	26.73	0.09	7.65
73.636	20.09	26.82	0.09	7.65
73.666	20.09	26.82	0.09	7.65
73.696	20.09	26.82	0.09	7.65
73.725	19.96	26.70	0.09	7.65
73.755	19.96	26.70	-0.01	7.55
73.785	19.96	26.70	-0.01	7.55
73.815	20.14	26.87	-0.01	7.55
73.844	20.14	26.87	0.14	7.70
73.874	20.14	26.87	0.14	7.70
73.904	19.69	26.43	0.14	7.70
73.934	19.69	26.43	0.01	7.57
73.963	19.69	26.43	0.01	7.57
73.993	19.81	26.54	0.01	7.57
74.023	19.81	26.54	0.09	7.65
74.053	19.81	26.54	0.09	7.65
74.083	20.07	26.80	0.09	7.65
74.112	20.07	26.80	0.09	7.65
74.142	20.07	26.80	0.09	7.65
74.172	20.09	26.82	0.09	7.65
74.202	20.09	26.82	-0.01	7.54
74.231	20.09	26.82	-0.01	7.54
74.261	20.38	27.11	-0.01	7.54
74.291	20.38	27.11	0.14	7.70
74.321	20.38	27.11	0.14	7.70
74.350	20.16	26.90	0.14	7.70
74.380	20.16	26.90	0.01	7.57
74.410	20.16	26.90	0.01	7.57
74.439	20.26	27.00	0.01	7.57
74.469	20.26	27.00	0.09	7.65
74.499	20.26	27.00	0.09	7.65
74.529	19.91	26.64	0.09	7.65
74.559	19.91	26.64	0.08	7.64
74.588	19.91	26.64	0.08	7.64
74.618	19.87	26.61	0.08	7.64
74.648	19.87	26.61	-0.01	7.55
74.678	19.87	26.61	-0.01	7.55
74.707	20.34	27.07	-0.01	7.55
74.737	20.34	27.07	0.14	7.70
74.767	20.34	27.07	0.14	7.70
74.797	19.84	26.57	0.14	7.70
74.826	19.84	26.57	0.01	7.57
74.856	19.84	26.57	0.01	7.57
74.886	19.62	26.36	0.01	7.57
74.916	19.62	26.36	0.09	7.65
74.946	19.62	26.36	0.09	7.65
74.975	20.18	26.91	0.09	7.65
75.005	20.18	26.91	0.07	7.63
75.035	20.18	26.91	0.07	7.63
75.065	20.42	27.16	0.07	7.63
75.094	20.42	27.16	-0.01	7.55
75.124	20.42	27.16	-0.01	7.55
75.154	20.02	26.75	-0.01	7.55
75.184	20.02	26.75	0.14	7.70
75.213	20.02	26.75	0.14	7.70
75.243	19.84	26.57	0.14	7.70
75.273	19.84	26.57	0.01	7.57
75.303	19.84	26.57	0.01	7.57
75.332	19.91	26.64	0.01	7.57
75.362	19.91	26.64	0.10	7.65
75.392	19.91	26.64	0.10	7.65
75.422	20.09	26.82	0.10	7.65
75.451	20.09	26.82	0.07	7.63
75.481	20.09	26.82	0.07	7.63
75.511	20.34	27.08	0.07	7.63
75.541	20.34	27.08	-0.01	7.55
75.571	20.34	27.08	-0.01	7.55
75.600	20.36	27.09	-0.01	7.55
75.630	20.36	27.09	0.15	7.70
75.660	20.36	27.09	0.15	7.70
75.690	20.37	27.11	0.15	7.70
75.719	20.37	27.11	0.01	7.57
75.749	20.37	27.11	0.01	7.57
75.779	20.25	26.98	0.01	7.57
75.809	20.25	26.98	0.10	7.66
75.838	20.25	26.98	0.10	7.66
75.868	20.88	27.61	0.10	7.66
75.898	20.88	27.61	0.06	7.62
75.928	20.88	27.61	0.06	7.62
75.957	20.90	27.63	0.06	7.62
75.987	20.90	27.63	0.00	7.56
76.017	20.90	27.63	0.00	7.56
76.047	20.86	27.59	0.00	7.56
76.077	20.86	27.59	0.15	7.70
76.106	20.86	27.59	0.15	7.70
76.136	20.73	27.47	0.15	7.70
76.166	20.73	27.47	0.00	7.56
76.196	20.73	27.47	0.00	7.56
76.225	20.39	27.12	0.00	7.56
76.255	20.39	27.12	0.10	7.66
76.285	20.39	27.12	0.10	7.66
76.315	20.35	27.08	0.10	7.66
76.344	20.35	27.08	0.06	7.62
76.374	20.35	27.08	0.06	7.62
76.404	20.28	27.02	0.06	7.62
76.434	20.28	27.02	0.00	7.56
76.463	20.28	27.02	0.00	7.56
76.493	19.81	26.55	0.00	7.56
76.523	19.81	26.55	0.14	7.70
76.553	19.81	26.55	0.14	7.70
76.583	19.80	26.53	0.14	7.70
76.612	19.80	26.53	-0.00	7.55
76.642	19.80	26.53	-0.00	7.55
76.672	19.84	26.58	-0.00	7.55
76.702	19.84	26.58	0.10	7.66
76.731	19.84	26.58	0.10	7.66
76.761	19.81	26.55	0.10	7.66
76.791	19.81	26.55	0.05	7.61
76.821	19.81	26.55	0.05	7.61
76.850	19.91	26.65	0.05	7.61
76.880	19.91	26.65	0.01	7.57
76.910	19.91	26.65	0.01	7.57
76.940	19.87	26.60	0.01	7.57
76.969	19.87	26.60	0.14	7.70
76.999	19.87	26.60	0.14	7.70
77.029	19.93	26.66	0.14	7.70
77.059	19.93	26.66	-0.00	7.56
77.089	19.93	26.66	-0.00	7.56
77.118	19.83	26.56	-0.00	7.56
77.148	19.83	26.56	0.10	7.66
77.178	19.83	26.56	0.10	7.66
77.207	20.01	26.74	0.10	7.66
77.237	20.01	26.74	0.05	7.61
77.267	20.01	26.74	0.05	7.61
77.297	20.69	27.42	0.05	7.61
77.326	20.69	27.42	0.01	7.57
77.356	20.69	27.42	0.01	7.57
77.386	20.34	27.07	0.01	7.57
77.416	20.34	27.07	0.14	7.70
77.446	20.34	27.07	0.14	7.70
77.475	20.48	27.21	0.14	7.70
77.505	20.48	27.21	-0.00	7.55
77.535	20.48	27.21	-0.00	7.55
77.565	20.71	27.44	-0.00	7.55
77.594	20.71	27.44	0.11	7.67
77.624	20.71	27.44	0.11	7.67
77.654	20.73	27.47	0.11	7.67
77.684	20.73	27.47	0.05	7.61
77.713	20.73	27.47	0.05	7.61
77.743	20.70	27.43	0.05	7.61
77.773	20.70	27.43	0.02	7.58
77.803	20.70	27.43	0.02	7.58
77.832	21.02	27.75	0.02	7.58
77.862	21.02	27.75	0.14	7.70
77.892	21.02	27.75	0.14	7.70
77.922	20.72	27.46	0.14	7.70
77.952	20.72	27.46	-0.01	7.55
77.981	20.72	27.46	-0.01	7.55
78.011	20.79	27.53	-0.01	7.55
78.041	20.79	27.53	0.11	7.67
78.071	20.79	27.53	0.11	7.67
78.100	20.42	27.15	0.11	7.67
78.130	20.42	27.15	0.04	7.60
78.160	20.42	27.15	0.04	7.60
78.190	20.35	27.08	0.04	7.60
78.219	20.35	27.08	0.02	7.58
78.249	20.35	27.08	0.02	7.58
78.279	20.32	27.05	0.02	7.58
78.309	20.32	27.05	0.15	7.70
78.338	20.32	27.05	0.15	7.70
78.368	20.43	27.17	0.15	7.70
78.398	20.43	27.17	-0.01	7.55
78.428	20.43	27.17	-0.01	7.55
78.458	20.92	27.66	-0.01	7.55
78.487	20.92	27.66	0.11	7.67
78.517	20.92	27.66	0.11	7.67
78.547	20.55	27.28	0.11	7.67
78.577	20.55	27.28	0.04	7.60
78.606	20.55	27.28	0.04	7.60
78.636	20.37	27.10	0.04	7.60
78.666	20.37	27.10	0.03	7.59
78.696	20.37	27.10	0.03	7.59
78.725	20.29	27.03	0.03	7.59
78.755	20.29	27.03	0.14	7.70
78.785	20.29	27.03	0.14	7.70
78.815	20.32	27.06	0.14	7.70
78.844	20.32	27.06	-0.01	7.55
78.874	20.32	27.06	-0.01	7.55
78.904	20.91	27.64	-0.01	7.55
78.934	20.91	27.64	0.11	7.67
78.964	20.91	27.64	0.11	7.67
78.993	20.61	27.34	0.11	7.67
79.023	20.61	27.34	0.04	7.59
79.053	20.61	27.34	0.04	7.59
79.083	20.75	27.49	0.04	7.59
79.112	20.75	27.49	0.04	7.60
79.142	20.75	27.49	0.04	7.60
79.172	21.01	27.74	0.04	7.60
79.202	21.01	27.74	0.14	7.70
79.231	21.01	27.74	0.14	7.70
79.261	21.15	27.88	0.14	7.70
79.291	21.15	27.88	-0.01	7.55
79.321	21.15	27.88	-0.01	7.55
79.350	21.09	27.82	-0.01	7.55
79.380	21.09	27.82	0.12	7.68
79.410	21.09	27.82	0.12	7.68
79.440	20.69	27.42	0.12	7.68
79.469	20.69	27.42	0.03	7.59
79.499	20.69	27.42	0.03	7.59
79.529	20.23	26.97	0.03	7.59
79.559	20.23	26.97	0.04	7.60
79.589	20.23	26.97	0.04	7.60
79.618	11.07	17.80	0.04	7.60
79.648	11.07	17.80	0.13	7.69
79.678	11.07	17.80	0.13	7.69
79.708	-3.35	3.38	0.13	7.69
79.737	-3.35	3.38	-0.02	7.54
79.767	-3.35	3.38	-0.02	7.54
79.797	-4.55	2.18	-0.02	7.54
79.827	-4.55	2.18	0.12	7.68
79.856	-4.55	2.18	0.12	7.68
79.886	-1.30	5.44	0.12	7.68
79.916	-1.30	5.44	0.03	7.59
79.946	-1.30	5.44	0.03	7.59
79.976	1.20	7.93	0.03	7.59
80.005	1.20	7.93	0.05	7.61
80.035	1.20	7.93	0.05	7.61
80.065	1.55	8.28	0.05	7.61
80.095	1.55	8.28	0.13	7.69
80.124	1.55	8.28	0.13	7.69
80.154	-0.43	6.30	0.13	7.69
80.184	-0.43	6.30	-0.02	7.54
80.214	-0.43	6.30	-0.02	7.54
80.244	-1.14	5.59	-0.02	7.54
80.273	-1.14	5.59	0.12	7.68
80.303	-1.14	5.59	0.12	7.68
80.333	-0.67	6.06	0.12	7.68
80.363	-0.67	6.06	0.03	7.59
80.392	-0.67	6.06	0.03	7.59
80.422	-0.07	6.67	0.03	7.59
80.452	-0.07	6.67	0.06	7.62
80.482	-0.07	6.67	0.06	7.62
80.512	0.16	6.89	0.06	7.62
80.541	0.16	6.89	0.13	7.69
80.571	0.16	6.89	0.13	7.69
80.601	-0.11	6.63	0.13	7.69
80.631	-0.11	6.63	-0.02	7.54
80.660	-0.11	6.63	-0.02	7.54
80.690	-0.28	6.45	-0.02	7.54
80.720	-0.28	6.45	0.12	7.68
80.750	-0.28	6.45	0.12	7.68
80.780	-0.26	6.47	0.12	7.68
80.809	-0.26	6.47	0.02	7.58
80.839	-0.26	6.47	0.02	7.58
80.869	-0.24	6.50	0.02	7.58
80.899	-0.24	6.50	0.06	7.62
80.928	-0.24	6.50	0.06	7.62
80.958	-0.22	6.52	0.06	7.62
80.988	-0.22	6.52	0.12	7.68
81.018	-0.22	6.52	0.12	7.68
81.048	-0.30	6.44	0.12	7.68
81.077	-0.30	6.44	-0.02	7.54
81.107	-0.30	6.44	-0.02	7.54
81.137	-0.27	6.47	-0.02	7.54
81.167	-0.27	6.47	0.13	7.69
81.196	-0.27	6.47	0.13	7.69
81.226	-0.31	6.42	0.13	7.69
81.256	-0.31	6.42	0.02	7.58
81.286	-0.31	6.42	0.02	7.58
81.316	-0.31	6.42	0.02	7.58
81.345	-0.31	6.42	0.07	7.63
81.375	-0.31	6.42	0.07	7.63
81.405	-0.28	6.45	0.07	7.63
81.435	-0.28	6.45	0.11	7.67
81.464	-0.28	6.45	0.11	7.67
81.494	-0.31	6.42	0.11	7.67
81.524	-0.31	6.42	-0.02	7.54
81.554	-0.31	6.42	-0.02	7.54
81.583	-0.27	6.47	-0.02	7.54
81.613	-0.27	6.47	0.13	7.69
81.643	-0.27	6.47	0.13	7.69
81.673	-0.30	6.44	0.13	7.69
81.703	-0.30	6.44	0.02	7.58
81.732	-0.30	6.44	0.02	7.58
81.762	-0.29	6.44	0.02	7.58
81.792	-0.29	6.44	0.08	7.64
81.822	-0.29	6.44	0.08	7.64
81.851	-0.27	6.47	0.08	7.64
81.881	-0.27	6.47	0.11	7.67
81.911	-0.27	6.47	0.11	7.67
81.941	-0.31	6.43	0.11	7.67
81.971	-0.31	6.43	-0.02	7.54
82.000	-0.31	6.43	-0.02	7.54
82.030	-0.26	6.48	-0.02	7.54
82.060	-0.26	6.48	0.14	7.69
82.090	-0.26	6.48	0.14	7.69
82.119	-0.28	6.45	0.14	7.69
82.149	-0.28	6.45	0.01	7.57
82.179	-0.28	6.45	0.01	7.57
82.209	-0.29	6.44	0.01	7.57
82.239	-0.29	6.44	0.08	7.64
82.268	-0.29	6.44	0.08	7.64
82.298	-0.26	6.47	0.08	7.64
82.328	-0.26	6.47	0.10	7.65
82.358	-0.26	6.47	0.10	7.65
82.387	-0.31	6.43	0.10	7.65
82.417	-0.31	6.43	-0.02	7.54
82.447	-0.31	6.43	-0.02	7.54
82.477	-0.26	6.47	-0.02	7.54
82.507	-0.26	6.47	0.14	7.69
82.536	-0.26	6.47	0.14	7.69
82.566	-0.29	6.45	0.14	7.69
82.596	-0.29	6.45	0.01	7.57
