Tempo(s)    P0(KPa) P0+Coluna(KPa)  P1(KPa) P1+Coluna(KPa)
0.003	-2.22	-2.22	-2.22	-2.22
0.030	-2.22	-2.22	-2.22	-2.22
0.060	12.27	12.27	-2.22	-2.22
0.090	12.27	12.27	7.74	7.74
0.120	12.27	12.27	7.74	7.74
0.149	12.31	12.31	7.74	7.74
0.179	12.31	12.31	7.68	7.68
0.209	12.31	12.31	7.68	7.68
0.239	12.28	12.28	7.68	7.68
0.268	12.28	12.28	7.71	7.71
0.298	12.28	12.28	7.71	7.71
0.328	12.28	12.28	7.71	7.71
0.358	12.28	12.28	7.60	7.60
0.388	12.28	12.28	7.60	7.60
0.417	12.29	12.29	7.60	7.60
0.447	12.29	12.29	7.74	7.74
0.477	12.29	12.29	7.74	7.74
0.507	12.29	12.29	7.74	7.74
0.536	12.29	12.29	7.62	7.62
0.566	12.29	12.29	7.62	7.62
0.596	12.30	12.30	7.62	7.62
0.626	0.00	12.30	0.07	7.69
0.655	0.00	12.30	0.07	7.69
0.685	-0.01	12.29	0.07	7.69
0.715	-0.01	12.29	0.10	7.72
0.745	-0.01	12.29	0.10	7.72
0.774	-0.01	12.28	0.10	7.72
0.804	-0.01	12.28	-0.02	7.60
0.834	-0.01	12.28	-0.02	7.60
0.864	-0.01	12.29	-0.02	7.60
0.893	-0.01	12.29	0.11	7.73
0.923	-0.01	12.29	0.11	7.73
0.953	-0.00	12.29	0.11	7.73
0.983	-0.00	12.29	-0.00	7.62
1.013	-0.00	12.29	-0.00	7.62
1.042	-0.01	12.29	-0.00	7.62
1.072	-0.01	12.29	0.08	7.70
1.102	-0.01	12.29	0.08	7.70
1.132	-0.01	12.28	0.08	7.70
1.161	-0.01	12.28	0.06	7.68
1.191	-0.01	12.28	0.06	7.68
1.221	-0.01	12.28	0.06	7.68
1.251	-0.01	12.28	-0.02	7.60
1.281	-0.01	12.28	-0.02	7.60
1.310	-0.02	12.28	-0.02	7.60
1.340	-0.02	12.28	0.12	7.74
1.370	-0.02	12.28	0.12	7.74
1.400	-0.01	12.28	0.12	7.74
1.429	-0.01	12.28	-0.00	7.62
1.459	-0.01	12.28	-0.00	7.62
1.489	-0.01	12.28	-0.00	7.62
1.519	-0.01	12.28	0.08	7.70
1.549	-0.01	12.28	0.08	7.70
1.578	-0.00	12.29	0.08	7.70
1.608	-0.00	12.29	0.05	7.67
1.638	-0.00	12.29	0.05	7.67
1.668	-0.01	12.29	0.05	7.67
1.697	-0.01	12.29	-0.02	7.60
1.727	-0.01	12.29	-0.02	7.60
1.757	-0.01	12.29	-0.02	7.60
1.787	-0.01	12.29	0.12	7.74
1.817	-0.01	12.29	0.12	7.74
1.846	-0.01	12.29	0.12	7.74
1.876	-0.01	12.29	-0.01	7.61
1.906	-0.01	12.29	-0.01	7.61
1.936	-0.01	12.28	-0.01	7.61
1.965	-0.01	12.28	0.08	7.70
1.995	-0.01	12.28	0.08	7.70
2.025	-0.03	12.27	0.08	7.70
2.055	-0.03	12.27	0.05	7.67
2.085	-0.03	12.27	0.05	7.67
2.114	-0.03	12.26	0.05	7.67
2.144	-0.03	12.26	-0.01	7.61
2.174	-0.03	12.26	-0.01	7.61
2.204	-0.02	12.27	-0.01	7.61
2.233	-0.02	12.27	0.12	7.74
2.263	-0.02	12.27	0.12	7.74
2.293	-0.02	12.27	0.12	7.74
2.323	-0.02	12.27	-0.01	7.61
2.353	-0.02	12.27	-0.01	7.61
2.382	-0.02	12.27	-0.01	7.61
2.412	-0.02	12.27	0.08	7.70
2.442	-0.02	12.27	0.08	7.70
2.472	-0.02	12.27	0.08	7.70
2.501	-0.02	12.27	0.04	7.66
2.531	-0.02	12.27	0.04	7.66
2.561	-0.02	12.27	0.04	7.66
2.591	-0.02	12.27	0.00	7.62
2.620	-0.02	12.27	0.00	7.62
2.650	-0.02	12.27	0.00	7.62
2.680	-0.02	12.27	0.12	7.74
2.710	-0.02	12.27	0.12	7.74
2.739	-0.02	12.27	0.12	7.74
2.769	-0.02	12.27	-0.02	7.60
2.799	-0.02	12.27	-0.02	7.60
2.829	-0.02	12.27	-0.02	7.60
2.859	-0.02	12.27	0.09	7.71
2.888	-0.02	12.27	0.09	7.71
2.918	-0.02	12.27	0.09	7.71
2.948	-0.02	12.27	0.03	7.65
2.978	-0.02	12.27	0.03	7.65
3.007	-0.03	12.27	0.03	7.65
3.037	-0.03	12.27	0.01	7.63
3.067	-0.03	12.27	0.01	7.63
3.097	-0.03	12.27	0.01	7.63
3.127	-0.03	12.27	0.12	7.74
3.156	-0.03	12.27	0.12	7.74
3.186	-0.02	12.27	0.12	7.74
3.216	-0.02	12.27	-0.02	7.60
3.246	-0.02	12.27	-0.02	7.60
3.275	-0.03	12.27	-0.02	7.60
3.305	-0.03	12.27	0.09	7.71
3.335	-0.03	12.27	0.09	7.71
3.365	-0.03	12.27	0.09	7.71
3.395	-0.03	12.27	0.03	7.65
3.424	-0.03	12.27	0.03	7.65
3.454	17.39	29.69	0.03	7.65
3.484	17.39	29.69	0.03	7.65
3.514	17.39	29.69	0.03	7.65
3.543	19.46	31.76	0.03	7.65
3.573	19.46	31.76	0.11	7.74
3.603	19.46	31.76	0.11	7.74
3.633	18.47	30.77	0.11	7.74
3.662	18.47	30.77	-0.02	7.60
3.692	18.47	30.77	-0.02	7.60
3.722	18.10	30.40	-0.02	7.60
3.752	18.10	30.40	0.10	7.72
3.782	18.10	30.40	0.10	7.72
3.811	18.17	30.47	0.10	7.72
3.841	18.17	30.47	0.02	7.64
3.871	18.17	30.47	0.02	7.64
3.901	18.31	30.60	0.02	7.64
3.930	18.31	30.60	0.03	7.65
3.960	18.31	30.60	0.03	7.65
3.990	18.18	30.48	0.03	7.65
4.020	18.18	30.48	0.12	7.74
4.049	18.18	30.48	0.12	7.74
4.079	18.09	30.38	0.12	7.74
4.109	18.09	30.38	-0.01	7.61
4.139	18.09	30.38	-0.01	7.61
4.169	18.21	30.51	-0.01	7.61
4.198	18.21	30.51	0.10	7.72
4.228	18.21	30.51	0.10	7.72
4.258	18.13	30.43	0.10	7.72
4.288	18.13	30.43	0.02	7.64
4.317	18.13	30.43	0.02	7.64
4.347	18.21	30.51	0.02	7.64
4.377	18.21	30.51	0.04	7.66
4.407	18.21	30.51	0.04	7.66
4.437	18.11	30.41	0.04	7.66
4.466	18.11	30.41	0.12	7.74
4.496	18.11	30.41	0.12	7.74
4.526	18.18	30.47	0.12	7.74
4.556	18.18	30.47	-0.02	7.60
4.585	18.18	30.47	-0.02	7.60
4.615	18.16	30.46	-0.02	7.60
4.645	18.16	30.46	0.10	7.72
4.675	18.16	30.46	0.10	7.72
4.704	18.10	30.39	0.10	7.72
4.734	18.10	30.39	0.02	7.64
4.764	18.10	30.39	0.02	7.64
4.794	18.38	30.68	0.02	7.64
4.824	18.38	30.68	0.04	7.67
4.853	18.38	30.68	0.04	7.67
4.883	18.15	30.45	0.04	7.67
4.913	18.15	30.45	0.11	7.73
4.943	18.15	30.45	0.11	7.73
4.972	18.35	30.65	0.11	7.73
5.002	18.35	30.65	-0.02	7.60
5.032	18.35	30.65	-0.02	7.60
5.062	18.32	30.62	-0.02	7.60
5.091	18.32	30.62	0.11	7.73
5.121	18.32	30.62	0.11	7.73
5.151	18.07	30.37	0.11	7.73
5.181	18.07	30.37	0.02	7.64
5.211	18.07	30.37	0.02	7.64
5.240	18.34	30.63	0.02	7.64
5.270	18.34	30.63	0.05	7.68
5.300	18.34	30.63	0.05	7.68
5.330	18.20	30.49	0.05	7.68
5.359	18.20	30.49	0.10	7.73
5.389	18.20	30.49	0.10	7.73
5.419	18.07	30.37	0.10	7.73
5.449	18.07	30.37	-0.02	7.60
5.479	18.07	30.37	-0.02	7.60
5.508	18.21	30.50	-0.02	7.60
5.538	18.21	30.50	0.11	7.73
5.568	18.21	30.50	0.11	7.73
5.598	18.09	30.39	0.11	7.73
5.627	18.09	30.39	0.01	7.64
5.657	18.09	30.39	0.01	7.64
5.687	18.29	30.58	0.01	7.64
5.717	18.29	30.58	0.06	7.68
5.746	18.29	30.58	0.06	7.68
5.776	18.21	30.50	0.06	7.68
5.806	18.21	30.50	0.10	7.72
5.836	18.21	30.50	0.10	7.72
5.866	18.27	30.56	0.10	7.72
5.895	18.27	30.56	-0.02	7.60
5.925	18.27	30.56	-0.02	7.60
5.955	18.29	30.58	-0.02	7.60
5.985	18.29	30.58	0.11	7.73
6.014	18.29	30.58	0.11	7.73
6.044	18.08	30.38	0.11	7.73
6.074	18.08	30.38	0.02	7.64
6.104	18.08	30.38	0.02	7.64
6.133	18.30	30.60	0.02	7.64
6.163	18.30	30.60	0.06	7.69
6.193	18.30	30.60	0.06	7.69
6.223	18.15	30.44	0.06	7.69
6.253	18.15	30.44	0.09	7.71
6.282	18.15	30.44	0.09	7.71
6.312	18.18	30.48	0.09	7.71
6.342	18.18	30.48	-0.02	7.60
6.372	18.18	30.48	-0.02	7.60
6.401	18.14	30.43	-0.02	7.60
6.431	18.14	30.43	0.11	7.73
6.461	18.14	30.43	0.11	7.73
6.491	18.18	30.48	0.11	7.73
6.521	18.18	30.48	0.01	7.63
6.550	18.18	30.48	0.01	7.63
6.580	18.35	30.65	0.01	7.63
6.610	18.35	30.65	0.07	7.69
6.640	18.35	30.65	0.07	7.69
6.669	18.11	30.40	0.07	7.69
6.699	18.11	30.40	0.10	7.73
6.729	18.11	30.40	0.10	7.73
6.759	18.25	30.55	0.10	7.73
6.788	18.25	30.55	-0.02	7.60
6.818	18.25	30.55	-0.02	7.60
6.848	18.26	30.55	-0.02	7.60
6.878	18.26	30.55	0.11	7.74
6.908	18.26	30.55	0.11	7.74
6.937	18.15	30.45	0.11	7.74
6.967	18.15	30.45	0.01	7.63
6.997	18.15	30.45	0.01	7.63
7.027	18.26	30.55	0.01	7.63
7.056	18.26	30.55	0.06	7.68
7.086	18.26	30.55	0.06	7.68
7.116	18.15	30.44	0.06	7.68
7.146	18.15	30.44	0.10	7.72
7.175	18.15	30.44	0.10	7.72
7.205	18.29	30.59	0.10	7.72
7.235	18.29	30.59	-0.02	7.60
7.265	18.29	30.59	-0.02	7.60
7.295	18.18	30.48	-0.02	7.60
7.324	18.18	30.48	0.11	7.73
7.354	18.18	30.48	0.11	7.73
7.384	18.30	30.60	0.11	7.73
7.414	18.30	30.60	0.01	7.64
7.443	18.30	30.60	0.01	7.64
7.473	18.24	30.54	0.01	7.64
7.503	18.24	30.54	0.06	7.68
7.533	18.24	30.54	0.06	7.68
7.563	18.24	30.54	0.06	7.68
7.592	18.24	30.54	0.09	7.71
7.622	18.24	30.54	0.09	7.71
7.652	18.29	30.59	0.09	7.71
7.682	18.29	30.59	-0.02	7.60
7.711	18.29	30.59	-0.02	7.60
7.741	18.34	30.63	-0.02	7.60
7.771	18.34	30.63	0.12	7.74
7.801	18.34	30.63	0.12	7.74
7.830	18.37	30.67	0.12	7.74
7.860	18.37	30.67	0.00	7.62
7.890	18.37	30.67	0.00	7.62
7.920	18.26	30.56	0.00	7.62
7.950	18.26	30.56	0.08	7.70
7.979	18.26	30.56	0.08	7.70
8.009	18.20	30.49	0.08	7.70
8.039	18.20	30.49	0.09	7.71
8.069	18.20	30.49	0.09	7.71
8.098	18.20	30.50	0.09	7.71
8.128	18.20	30.50	-0.02	7.60
8.158	18.20	30.50	-0.02	7.60
8.188	18.31	30.61	-0.02	7.60
8.217	18.31	30.61	0.11	7.74
8.247	18.31	30.61	0.11	7.74
8.277	18.34	30.63	0.11	7.74
8.307	18.34	30.63	0.00	7.63
8.337	18.34	30.63	0.00	7.63
8.366	18.24	30.53	0.00	7.63
8.396	18.24	30.53	0.07	7.69
8.426	18.24	30.53	0.07	7.69
8.456	18.33	30.63	0.07	7.69
8.485	18.33	30.63	0.08	7.70
8.515	18.33	30.63	0.08	7.70
8.545	18.29	30.59	0.08	7.70
8.575	18.29	30.59	-0.02	7.60
8.605	18.29	30.59	-0.02	7.60
8.634	18.35	30.65	-0.02	7.60
8.664	18.35	30.65	0.12	7.74
8.694	18.35	30.65	0.12	7.74
8.724	18.28	30.58	0.12	7.74
8.753	18.28	30.58	0.00	7.63
8.783	18.28	30.58	0.00	7.63
8.813	18.30	30.59	0.00	7.63
8.843	18.30	30.59	0.08	7.70
8.872	18.30	30.59	0.08	7.70
8.902	18.27	30.57	0.08	7.70
8.932	18.27	30.57	0.07	7.69
8.962	18.27	30.57	0.07	7.69
8.992	18.40	30.69	0.07	7.69
9.021	18.40	30.69	-0.02	7.60
9.051	18.40	30.69	-0.02	7.60
9.081	18.29	30.59	-0.02	7.60
9.111	18.29	30.59	0.11	7.73
9.140	18.29	30.59	0.11	7.73
9.170	18.59	30.89	0.11	7.73
9.200	18.59	30.89	-0.00	7.62
9.230	18.59	30.89	-0.00	7.62
9.259	18.37	30.67	-0.00	7.62
9.289	18.37	30.67	0.08	7.70
9.319	18.37	30.67	0.08	7.70
9.349	18.40	30.70	0.08	7.70
9.379	18.40	30.70	0.06	7.68
9.408	18.40	30.70	0.06	7.68
9.438	18.41	30.71	0.06	7.68
9.468	18.41	30.71	-0.02	7.60
9.498	18.41	30.71	-0.02	7.60
9.527	18.42	30.72	-0.02	7.60
9.557	18.42	30.72	0.11	7.74
9.587	18.42	30.72	0.11	7.74
9.617	18.45	30.75	0.11	7.74
9.646	18.45	30.75	0.00	7.62
9.676	18.45	30.75	0.00	7.62
9.706	18.44	30.73	0.00	7.62
9.736	18.44	30.73	0.07	7.69
9.765	18.44	30.73	0.07	7.69
9.795	18.32	30.62	0.07	7.69
9.825	18.32	30.62	0.05	7.67
9.855	18.32	30.62	0.05	7.67
9.885	18.40	30.70	0.05	7.67
9.914	18.40	30.70	-0.02	7.60
9.944	18.40	30.70	-0.02	7.60
9.974	18.41	30.71	-0.02	7.60
10.004	18.41	30.71	0.12	7.74
10.033	18.41	30.71	0.12	7.74
10.063	18.51	30.80	0.12	7.74
10.093	18.51	30.80	-0.01	7.61
10.123	18.51	30.80	-0.01	7.61
10.152	18.39	30.69	-0.01	7.61
10.182	18.39	30.69	0.08	7.70
10.212	18.39	30.69	0.08	7.70
10.242	18.33	30.62	0.08	7.70
10.271	18.33	30.62	0.04	7.67
10.301	18.33	30.62	0.04	7.67
10.331	18.56	30.85	0.04	7.67
10.361	18.56	30.85	-0.01	7.61
10.391	18.56	30.85	-0.01	7.61
10.420	18.42	30.72	-0.01	7.61
10.450	18.42	30.72	0.12	7.74
10.480	18.42	30.72	0.12	7.74
10.510	18.49	30.79	0.12	7.74
10.539	18.49	30.79	-0.01	7.61
10.569	18.49	30.79	-0.01	7.61
10.599	18.42	30.71	-0.01	7.61
10.629	18.42	30.71	0.08	7.70
10.658	18.42	30.71	0.08	7.70
10.688	18.39	30.69	0.08	7.70
10.718	18.39	30.69	0.04	7.66
10.748	18.39	30.69	0.04	7.66
10.777	18.31	30.61	0.04	7.66
10.807	18.31	30.61	-0.00	7.62
10.837	18.31	30.61	-0.00	7.62
10.867	18.31	30.61	-0.00	7.62
10.896	18.31	30.61	0.12	7.74
10.926	18.31	30.61	0.12	7.74
10.956	18.51	30.81	0.12	7.74
10.986	18.51	30.81	-0.01	7.61
11.016	18.51	30.81	-0.01	7.61
11.045	18.36	30.66	-0.01	7.61
11.075	18.36	30.66	0.08	7.70
11.105	18.36	30.66	0.08	7.70
11.135	18.42	30.72	0.08	7.70
11.164	18.42	30.72	0.03	7.65
11.194	18.42	30.72	0.03	7.65
11.224	18.44	30.74	0.03	7.65
11.254	18.44	30.74	0.00	7.63
11.283	18.44	30.74	0.00	7.63
11.313	18.34	30.63	0.00	7.63
11.343	18.34	30.63	0.11	7.74
11.373	18.34	30.63	0.11	7.74
11.402	18.45	30.75	0.11	7.74
11.432	18.45	30.75	-0.02	7.60
11.462	18.45	30.75	-0.02	7.60
11.492	18.34	30.64	-0.02	7.60
11.522	18.34	30.64	0.09	7.71
11.551	18.34	30.64	0.09	7.71
11.581	18.39	30.69	0.09	7.71
11.611	18.39	30.69	0.03	7.65
11.641	18.39	30.69	0.03	7.65
11.670	18.35	30.65	0.03	7.65
11.700	18.35	30.65	0.01	7.63
11.730	18.35	30.65	0.01	7.63
11.760	18.33	30.63	0.01	7.63
11.789	18.33	30.63	0.11	7.73
11.819	18.33	30.63	0.11	7.73
11.849	18.44	30.74	0.11	7.73
11.879	18.44	30.74	-0.02	7.60
11.908	18.44	30.74	-0.02	7.60
11.938	18.36	30.65	-0.02	7.60
11.968	18.36	30.65	0.09	7.71
11.998	18.36	30.65	0.09	7.71
12.028	18.43	30.73	0.09	7.71
12.057	18.43	30.73	0.03	7.65
12.087	18.43	30.73	0.03	7.65
12.117	18.49	30.79	0.03	7.65
12.147	18.49	30.79	0.01	7.64
12.176	18.49	30.79	0.01	7.64
12.206	18.36	30.66	0.01	7.64
12.236	18.36	30.66	0.11	7.73
12.266	18.36	30.66	0.11	7.73
12.295	18.52	30.81	0.11	7.73
12.325	18.52	30.81	-0.02	7.60
12.355	18.52	30.81	-0.02	7.60
12.385	18.42	30.72	-0.02	7.60
12.414	18.42	30.72	0.09	7.71
12.444	18.42	30.72	0.09	7.71
12.474	18.35	30.64	0.09	7.71
12.504	18.35	30.64	0.02	7.64
12.533	18.35	30.64	0.02	7.64
12.563	18.44	30.73	0.02	7.64
12.593	18.44	30.73	0.03	7.65
12.623	18.44	30.73	0.03	7.65
12.653	18.41	30.71	0.03	7.65
12.682	18.41	30.71	0.11	7.73
12.712	18.41	30.71	0.11	7.73
12.742	18.50	30.80	0.11	7.73
12.772	18.50	30.80	-0.02	7.60
12.801	18.50	30.80	-0.02	7.60
12.831	18.47	30.77	-0.02	7.60
12.861	18.47	30.77	0.10	7.72
12.891	18.47	30.77	0.10	7.72
12.920	18.50	30.80	0.10	7.72
12.950	18.50	30.80	0.02	7.64
12.980	18.50	30.80	0.02	7.64
13.010	18.50	30.80	0.02	7.64
13.039	18.50	30.80	0.03	7.65
13.069	18.50	30.80	0.03	7.65
13.099	18.40	30.69	0.03	7.65
13.129	18.40	30.69	0.11	7.73
13.158	18.40	30.69	0.11	7.73
13.188	18.48	30.78	0.11	7.73
13.218	18.48	30.78	-0.02	7.60
13.248	18.48	30.78	-0.02	7.60
13.278	18.42	30.72	-0.02	7.60
13.307	18.42	30.72	0.10	7.72
13.337	18.42	30.72	0.10	7.72
13.367	18.46	30.76	0.10	7.72
13.397	18.46	30.76	0.01	7.64
13.426	18.46	30.76	0.01	7.64
13.456	18.49	30.79	0.01	7.64
13.486	18.49	30.79	0.04	7.66
13.516	18.49	30.79	0.04	7.66
13.545	18.43	30.72	0.04	7.66
13.575	18.43	30.72	0.11	7.73
13.605	18.43	30.72	0.11	7.73
13.635	18.49	30.78	0.11	7.73
13.664	18.49	30.78	-0.02	7.60
13.694	18.49	30.78	-0.02	7.60
13.724	18.44	30.74	-0.02	7.60
13.754	18.44	30.74	0.10	7.72
13.784	18.44	30.74	0.10	7.72
13.813	18.40	30.70	0.10	7.72
13.843	18.40	30.70	0.01	7.63
13.873	18.40	30.70	0.01	7.63
13.903	18.55	30.84	0.01	7.63
13.932	18.55	30.84	0.05	7.67
13.962	18.55	30.84	0.05	7.67
13.992	18.43	30.73	0.05	7.67
14.022	18.43	30.73	0.10	7.72
14.051	18.43	30.73	0.10	7.72
14.081	18.55	30.84	0.10	7.72
14.111	18.55	30.84	-0.02	7.60
14.141	18.55	30.84	-0.02	7.60
14.170	18.51	30.81	-0.02	7.60
14.200	18.51	30.81	0.11	7.73
14.230	18.51	30.81	0.11	7.73
14.260	18.51	30.80	0.11	7.73
14.289	18.51	30.80	0.01	7.63
14.319	18.51	30.80	0.01	7.63
14.349	18.48	30.78	0.01	7.63
14.379	18.48	30.78	0.05	7.68
14.409	18.48	30.78	0.05	7.68
14.438	18.51	30.81	0.05	7.68
14.468	18.51	30.81	0.10	7.72
14.498	18.51	30.81	0.10	7.72
14.528	18.51	30.80	0.10	7.72
14.557	18.51	30.80	-0.02	7.60
14.587	18.51	30.80	-0.02	7.60
14.617	18.47	30.77	-0.02	7.60
14.647	18.47	30.77	0.10	7.73
14.676	18.47	30.77	0.10	7.73
14.706	18.47	30.77	0.10	7.73
14.736	18.47	30.77	0.01	7.63
14.766	18.47	30.77	0.01	7.63
14.795	18.53	30.83	0.01	7.63
14.825	18.53	30.83	0.06	7.68
14.855	18.53	30.83	0.06	7.68
14.885	18.47	30.77	0.06	7.68
14.914	18.47	30.77	0.09	7.71
14.944	18.47	30.77	0.09	7.71
14.974	18.54	30.84	0.09	7.71
15.004	18.54	30.84	-0.02	7.60
15.034	18.54	30.84	-0.02	7.60
15.063	18.49	30.79	-0.02	7.60
15.093	18.49	30.79	0.11	7.73
15.123	18.49	30.79	0.11	7.73
15.153	18.44	30.74	0.11	7.73
15.182	18.44	30.74	0.01	7.63
15.212	18.44	30.74	0.01	7.63
15.242	18.46	30.76	0.01	7.63
15.272	18.46	30.76	0.06	7.68
15.301	18.46	30.76	0.06	7.68
15.331	18.50	30.79	0.06	7.68
15.361	18.50	30.79	0.08	7.70
15.391	18.50	30.79	0.08	7.70
15.420	18.45	30.75	0.08	7.70
15.450	18.45	30.75	-0.02	7.60
15.480	18.45	30.75	-0.02	7.60
15.510	18.49	30.79	-0.02	7.60
15.540	18.49	30.79	0.11	7.73
15.569	18.49	30.79	0.11	7.73
15.599	18.48	30.77	0.11	7.73
15.629	18.48	30.77	-0.00	7.62
15.659	18.48	30.77	-0.00	7.62
15.688	18.58	30.87	-0.00	7.62
15.718	18.58	30.87	0.07	7.69
15.748	18.58	30.87	0.07	7.69
15.778	18.44	30.73	0.07	7.69
15.807	18.44	30.73	0.07	7.69
15.837	18.44	30.73	0.07	7.69
15.867	18.58	30.87	0.07	7.69
15.897	18.58	30.87	-0.02	7.60
15.926	18.58	30.87	-0.02	7.60
15.956	18.46	30.76	-0.02	7.60
15.986	18.46	30.76	0.11	7.73
16.016	18.46	30.76	0.11	7.73
16.045	18.57	30.87	0.11	7.73
16.075	18.57	30.87	-0.00	7.62
16.105	18.57	30.87	-0.00	7.62
16.135	18.53	30.82	-0.00	7.62
16.165	18.53	30.82	0.08	7.70
16.194	18.53	30.82	0.08	7.70
16.224	18.52	30.82	0.08	7.70
16.254	18.52	30.82	0.06	7.68
16.284	18.52	30.82	0.06	7.68
16.313	18.49	30.79	0.06	7.68
16.343	18.49	30.79	-0.02	7.60
16.373	18.49	30.79	-0.02	7.60
16.403	18.43	30.72	-0.02	7.60
16.432	18.43	30.72	0.12	7.74
16.462	18.43	30.72	0.12	7.74
16.492	18.50	30.80	0.12	7.74
16.522	18.50	30.80	-0.00	7.62
16.551	18.50	30.80	-0.00	7.62
16.581	18.47	30.76	-0.00	7.62
16.611	18.47	30.76	0.08	7.70
16.641	18.47	30.76	0.08	7.70
16.670	18.51	30.81	0.08	7.70
16.700	18.51	30.81	0.06	7.68
16.730	18.51	30.81	0.06	7.68
16.760	18.52	30.81	0.06	7.68
16.790	18.52	30.81	-0.01	7.61
16.819	18.52	30.81	-0.01	7.61
16.849	18.49	30.78	-0.01	7.61
16.879	18.49	30.78	0.12	7.74
16.909	18.49	30.78	0.12	7.74
16.938	18.51	30.80	0.12	7.74
16.968	18.51	30.80	-0.01	7.61
16.998	18.51	30.80	-0.01	7.61
17.028	18.50	30.80	-0.01	7.61
17.057	18.50	30.80	0.08	7.70
17.087	18.50	30.80	0.08	7.70
17.117	18.49	30.78	0.08	7.70
17.147	18.49	30.78	0.05	7.67
17.176	18.49	30.78	0.05	7.67
17.206	18.57	30.87	0.05	7.67
17.236	18.57	30.87	-0.01	7.61
17.266	18.57	30.87	-0.01	7.61
17.295	18.47	30.77	-0.01	7.61
17.325	18.47	30.77	0.12	7.74
17.355	18.47	30.77	0.12	7.74
17.385	18.49	30.78	0.12	7.74
17.415	18.49	30.78	-0.01	7.61
17.444	18.49	30.78	-0.01	7.61
17.474	18.55	30.84	-0.01	7.61
17.504	18.55	30.84	0.08	7.70
17.534	18.55	30.84	0.08	7.70
17.563	18.50	30.79	0.08	7.70
17.593	18.50	30.79	0.04	7.66
17.623	18.50	30.79	0.04	7.66
17.653	18.46	30.76	0.04	7.66
17.682	18.46	30.76	-0.01	7.62
17.712	18.46	30.76	-0.01	7.62
17.742	18.42	30.72	-0.01	7.62
17.772	18.42	30.72	0.12	7.74
17.801	18.42	30.72	0.12	7.74
17.831	18.52	30.82	0.12	7.74
17.861	18.52	30.82	-0.02	7.60
17.891	18.52	30.82	-0.02	7.60
17.920	18.48	30.78	-0.02	7.60
17.950	18.48	30.78	0.08	7.70
17.980	18.48	30.78	0.08	7.70
18.010	18.47	30.77	0.08	7.70
18.040	18.47	30.77	0.03	7.65
18.069	18.47	30.77	0.03	7.65
18.099	18.45	30.75	0.03	7.65
18.129	18.45	30.75	0.00	7.62
18.159	18.45	30.75	0.00	7.62
18.188	18.46	30.76	0.00	7.62
18.218	18.46	30.76	0.12	7.74
18.248	18.46	30.76	0.12	7.74
18.278	18.49	30.79	0.12	7.74
18.307	18.49	30.79	-0.02	7.60
18.337	18.49	30.79	-0.02	7.60
18.367	18.51	30.81	-0.02	7.60
18.397	18.51	30.81	0.08	7.70
18.426	18.51	30.81	0.08	7.70
18.456	18.50	30.80	0.08	7.70
18.486	18.50	30.80	0.03	7.65
18.516	18.50	30.80	0.03	7.65
18.546	18.49	30.79	0.03	7.65
18.575	18.49	30.79	0.01	7.63
18.605	18.49	30.79	0.01	7.63
18.635	18.43	30.73	0.01	7.63
18.665	18.43	30.73	0.11	7.74
18.694	18.43	30.73	0.11	7.74
18.724	18.52	30.82	0.11	7.74
18.754	18.52	30.82	-0.02	7.60
18.784	18.52	30.82	-0.02	7.60
18.813	18.44	30.74	-0.02	7.60
18.843	18.44	30.74	0.09	7.71
18.873	18.44	30.74	0.09	7.71
18.903	18.50	30.80	0.09	7.71
18.932	18.50	30.80	0.02	7.64
18.962	18.50	30.80	0.02	7.64
18.992	18.42	30.72	0.02	7.64
19.022	18.42	30.72	0.01	7.63
19.051	18.42	30.72	0.01	7.63
19.081	18.43	30.73	0.01	7.63
19.111	18.43	30.73	0.12	7.74
19.141	18.43	30.73	0.12	7.74
19.171	18.48	30.78	0.12	7.74
19.200	18.48	30.78	-0.02	7.60
19.230	18.48	30.78	-0.02	7.60
19.260	18.50	30.80	-0.02	7.60
19.290	18.50	30.80	0.09	7.71
19.319	18.50	30.80	0.09	7.71
19.349	18.48	30.78	0.09	7.71
19.379	18.48	30.78	0.02	7.64
19.409	18.48	30.78	0.02	7.64
19.438	18.42	30.72	0.02	7.64
19.468	18.42	30.72	0.02	7.64
19.498	18.42	30.72	0.02	7.64
19.528	18.47	30.77	0.02	7.64
19.557	18.47	30.77	0.11	7.74
19.587	18.47	30.77	0.11	7.74
19.617	18.47	30.77	0.11	7.74
19.647	18.47	30.77	-0.02	7.60
19.677	18.47	30.77	-0.02	7.60
19.706	18.41	30.70	-0.02	7.60
19.736	18.41	30.70	0.10	7.72
19.766	18.41	30.70	0.10	7.72
19.796	18.51	30.80	0.10	7.72
19.825	18.51	30.80	0.02	7.64
19.855	18.51	30.80	0.02	7.64
19.885	18.48	30.78	0.02	7.64
19.915	18.48	30.78	0.03	7.65
19.944	18.48	30.78	0.03	7.65
19.974	18.40	30.70	0.03	7.65
20.004	18.40	30.70	0.11	7.73
20.034	18.40	30.70	0.11	7.73
20.063	18.42	30.72	0.11	7.73
20.093	18.42	30.72	-0.02	7.60
20.123	18.42	30.72	-0.02	7.60
20.153	18.47	30.77	-0.02	7.60
20.182	18.47	30.77	0.10	7.72
20.212	18.47	30.77	0.10	7.72
20.242	18.42	30.72	0.10	7.72
20.272	18.42	30.72	0.01	7.63
20.302	18.42	30.72	0.01	7.63
20.331	18.46	30.76	0.01	7.63
20.361	18.46	30.76	0.04	7.66
20.391	18.46	30.76	0.04	7.66
20.421	18.41	30.71	0.04	7.66
20.450	18.41	30.71	0.11	7.73
20.480	18.41	30.71	0.11	7.73
20.510	18.41	30.70	0.11	7.73
20.540	18.41	30.70	-0.02	7.60
20.569	18.41	30.70	-0.02	7.60
20.599	18.46	30.75	-0.02	7.60
20.629	18.46	30.75	0.10	7.72
20.659	18.46	30.75	0.10	7.72
20.688	18.51	30.81	0.10	7.72
20.718	18.51	30.81	0.01	7.64
20.748	18.51	30.81	0.01	7.64
20.778	18.45	30.74	0.01	7.64
20.808	18.45	30.74	0.04	7.67
20.837	18.45	30.74	0.04	7.67
20.867	18.40	30.70	0.04	7.67
20.897	18.40	30.70	0.11	7.73
20.927	18.40	30.70	0.11	7.73
20.956	18.43	30.73	0.11	7.73
20.986	18.43	30.73	-0.02	7.60
21.016	18.43	30.73	-0.02	7.60
21.046	18.49	30.78	-0.02	7.60
21.075	18.49	30.78	0.11	7.73
21.105	18.49	30.78	0.11	7.73
21.135	18.42	30.72	0.11	7.73
21.165	18.42	30.72	0.01	7.63
21.194	18.42	30.72	0.01	7.63
21.224	18.43	30.73	0.01	7.63
21.254	18.43	30.73	0.05	7.67
21.284	18.43	30.73	0.05	7.67
21.314	18.48	30.78	0.05	7.67
21.343	18.48	30.78	0.10	7.72
21.373	18.48	30.78	0.10	7.72
21.403	18.45	30.74	0.10	7.72
21.433	18.45	30.74	-0.02	7.60
21.462	18.45	30.74	-0.02	7.60
21.492	18.40	30.70	-0.02	7.60
21.522	18.40	30.70	0.11	7.73
21.552	18.40	30.70	0.11	7.73
21.581	18.40	30.70	0.11	7.73
21.611	18.40	30.70	0.01	7.63
21.641	18.40	30.70	0.01	7.63
21.671	18.40	30.70	0.01	7.63
21.700	18.40	30.70	0.05	7.68
21.730	18.40	30.70	0.05	7.68
21.760	18.42	30.72	0.05	7.68
21.790	18.42	30.72	0.09	7.71
21.820	18.42	30.72	0.09	7.71
21.849	18.44	30.74	0.09	7.71
21.879	18.44	30.74	-0.02	7.60
21.909	18.44	30.74	-0.02	7.60
21.939	18.45	30.75	-0.02	7.60
21.968	18.45	30.75	0.11	7.73
21.998	18.45	30.75	0.11	7.73
22.028	18.39	30.69	0.11	7.73
22.058	18.39	30.69	0.01	7.63
22.087	18.39	30.69	0.01	7.63
22.117	18.40	30.70	0.01	7.63
22.147	18.40	30.70	0.06	7.68
22.177	18.40	30.70	0.06	7.68
22.206	18.44	30.74	0.06	7.68
22.236	18.44	30.74	0.09	7.71
22.266	18.44	30.74	0.09	7.71
22.296	18.39	30.68	0.09	7.71
22.325	18.39	30.68	-0.02	7.60
22.355	18.39	30.68	-0.02	7.60
22.385	18.41	30.70	-0.02	7.60
22.415	18.41	30.70	0.11	7.73
22.445	18.41	30.70	0.11	7.73
22.474	18.42	30.72	0.11	7.73
22.504	18.42	30.72	0.00	7.62
22.534	18.42	30.72	0.00	7.62
22.564	18.42	30.71	0.00	7.62
22.593	18.42	30.71	0.06	7.68
22.623	18.42	30.71	0.06	7.68
22.653	18.41	30.71	0.06	7.68
22.683	18.41	30.71	0.08	7.70
22.712	18.41	30.71	0.08	7.70
22.742	18.42	30.72	0.08	7.70
22.772	18.42	30.72	-0.02	7.60
22.802	18.42	30.72	-0.02	7.60
22.831	18.43	30.73	-0.02	7.60
22.861	18.43	30.73	0.11	7.73
22.891	18.43	30.73	0.11	7.73
22.921	18.38	30.68	0.11	7.73
22.950	18.38	30.68	0.00	7.62
22.980	18.38	30.68	0.00	7.62
23.010	18.43	30.73	0.00	7.62
23.040	18.43	30.73	0.07	7.69
23.069	18.43	30.73	0.07	7.69
23.099	18.40	30.70	0.07	7.69
23.129	18.40	30.70	0.07	7.69
23.159	18.40	30.70	0.07	7.69
23.188	18.36	30.66	0.07	7.69
23.218	18.36	30.66	-0.02	7.60
23.248	18.36	30.66	-0.02	7.60
23.278	18.35	30.65	-0.02	7.60
23.308	18.35	30.65	0.11	7.73
23.337	18.35	30.65	0.11	7.73
23.367	18.41	30.71	0.11	7.73
23.397	18.41	30.71	-0.00	7.62
23.427	18.41	30.71	-0.00	7.62
23.456	18.36	30.65	-0.00	7.62
23.486	18.36	30.65	0.08	7.70
23.516	18.36	30.65	0.08	7.70
23.546	18.37	30.67	0.08	7.70
23.575	18.37	30.67	0.06	7.68
23.605	18.37	30.67	0.06	7.68
23.635	18.45	30.75	0.06	7.68
23.665	18.45	30.75	-0.02	7.60
23.694	18.45	30.75	-0.02	7.60
23.724	18.47	30.77	-0.02	7.60
23.754	18.47	30.77	0.11	7.73
23.784	18.47	30.77	0.11	7.73
23.813	18.40	30.70	0.11	7.73
23.843	18.40	30.70	-0.00	7.62
23.873	18.40	30.70	-0.00	7.62
23.903	18.37	30.67	-0.00	7.62
23.933	18.37	30.67	0.07	7.69
23.962	18.37	30.67	0.07	7.69
23.992	18.38	30.68	0.07	7.69
24.022	18.38	30.68	0.05	7.67
24.052	18.38	30.68	0.05	7.67
24.081	18.45	30.75	0.05	7.67
24.111	18.45	30.75	-0.02	7.60
24.141	18.45	30.75	-0.02	7.60
24.171	18.36	30.65	-0.02	7.60
24.200	18.36	30.65	0.12	7.74
24.230	18.36	30.65	0.12	7.74
24.260	18.46	30.76	0.12	7.74
24.290	18.46	30.76	-0.01	7.61
24.319	18.46	30.76	-0.01	7.61
24.349	18.39	30.68	-0.01	7.61
24.379	18.39	30.68	0.08	7.70
24.409	18.39	30.68	0.08	7.70
24.438	18.38	30.67	0.08	7.70
24.468	18.38	30.67	0.04	7.66
24.498	18.38	30.67	0.04	7.66
24.528	18.39	30.69	0.04	7.66
24.558	18.39	30.69	-0.01	7.61
24.587	18.39	30.69	-0.01	7.61
24.617	18.36	30.65	-0.01	7.61
24.647	18.36	30.65	0.12	7.74
24.677	18.36	30.65	0.12	7.74
24.706	18.37	30.67	0.12	7.74
24.736	18.37	30.67	-0.02	7.60
24.766	18.37	30.67	-0.02	7.60
24.796	18.42	30.72	-0.02	7.60
24.825	18.42	30.72	0.08	7.70
24.855	18.42	30.72	0.08	7.70
24.885	18.40	30.69	0.08	7.70
24.915	18.40	30.69	0.04	7.66
24.944	18.40	30.69	0.04	7.66
24.974	18.39	30.69	0.04	7.66
25.004	18.39	30.69	-0.01	7.62
25.034	18.39	30.69	-0.01	7.62
25.063	18.36	30.66	-0.01	7.62
25.093	18.36	30.66	0.12	7.74
25.123	18.36	30.66	0.12	7.74
25.153	18.44	30.74	0.12	7.74
25.183	18.44	30.74	-0.02	7.60
25.212	18.44	30.74	-0.02	7.60
25.242	18.36	30.66	-0.02	7.60
25.272	18.36	30.66	0.08	7.70
25.302	18.36	30.66	0.08	7.70
25.331	18.29	30.59	0.08	7.70
25.361	18.29	30.59	0.03	7.65
25.391	18.29	30.59	0.03	7.65
25.421	18.34	30.64	0.03	7.65
25.450	18.34	30.64	-0.00	7.62
25.480	18.34	30.64	-0.00	7.62
25.510	18.42	30.72	-0.00	7.62
25.540	18.42	30.72	0.12	7.74
25.569	18.42	30.72	0.12	7.74
25.599	18.37	30.67	0.12	7.74
25.629	18.37	30.67	-0.02	7.60
25.659	18.37	30.67	-0.02	7.60
25.689	18.44	30.73	-0.02	7.60
25.718	18.44	30.73	0.09	7.71
25.748	18.44	30.73	0.09	7.71
25.778	18.37	30.67	0.09	7.71
25.808	18.37	30.67	0.03	7.65
25.837	18.37	30.67	0.03	7.65
25.867	18.36	30.65	0.03	7.65
25.897	18.36	30.65	0.01	7.63
25.927	18.36	30.65	0.01	7.63
25.956	18.33	30.63	0.01	7.63
25.986	18.33	30.63	0.11	7.74
26.016	18.33	30.63	0.11	7.74
26.046	18.38	30.68	0.11	7.74
26.075	18.38	30.68	-0.02	7.60
26.105	18.38	30.68	-0.02	7.60
26.135	18.34	30.63	-0.02	7.60
26.165	18.34	30.63	0.09	7.71
26.194	18.34	30.63	0.09	7.71
26.224	18.38	30.68	0.09	7.71
26.254	18.38	30.68	0.02	7.64
26.284	18.38	30.68	0.02	7.64
26.314	18.38	30.68	0.02	7.64
26.343	18.38	30.68	0.01	7.63
26.373	18.38	30.68	0.01	7.63
26.403	18.39	30.68	0.01	7.63
26.433	18.39	30.68	0.11	7.74
26.462	18.39	30.68	0.11	7.74
26.492	18.29	30.59	0.11	7.74
26.522	18.29	30.59	-0.02	7.60
26.552	18.29	30.59	-0.02	7.60
26.581	18.38	30.67	-0.02	7.60
26.611	18.38	30.67	0.09	7.71
26.641	18.38	30.67	0.09	7.71
26.671	18.40	30.69	0.09	7.71
26.700	18.40	30.69	0.02	7.64
26.730	18.40	30.69	0.02	7.64
26.760	18.46	30.76	0.02	7.64
26.790	18.46	30.76	0.02	7.64
26.819	18.46	30.76	0.02	7.64
26.849	18.33	30.63	0.02	7.64
26.879	18.33	30.63	0.11	7.74
26.909	18.33	30.63	0.11	7.74
26.939	18.37	30.67	0.11	7.74
26.968	18.37	30.67	-0.02	7.60
26.998	18.37	30.67	-0.02	7.60
27.028	18.36	30.66	-0.02	7.60
27.058	18.36	30.66	0.09	7.71
27.087	18.36	30.66	0.09	7.71
27.117	18.38	30.67	0.09	7.71
27.147	18.38	30.67	0.02	7.64
27.177	18.38	30.67	0.02	7.64
27.206	18.41	30.71	0.02	7.64
27.236	18.41	30.71	0.03	7.65
27.266	18.41	30.71	0.03	7.65
27.296	18.40	30.70	0.03	7.65
27.325	18.40	30.70	0.11	7.73
27.355	18.40	30.70	0.11	7.73
27.385	18.39	30.68	0.11	7.73
27.415	18.39	30.68	-0.02	7.60
27.445	18.39	30.68	-0.02	7.60
27.474	18.42	30.72	-0.02	7.60
27.504	18.42	30.72	0.10	7.72
27.534	18.42	30.72	0.10	7.72
27.564	18.40	30.69	0.10	7.72
27.593	18.40	30.69	0.02	7.64
27.623	18.40	30.69	0.02	7.64
27.653	18.36	30.66	0.02	7.64
27.683	18.36	30.66	0.03	7.65
27.712	18.36	30.66	0.03	7.65
27.742	18.41	30.71	0.03	7.65
27.772	18.41	30.71	0.11	7.73
27.802	18.41	30.71	0.11	7.73
27.831	18.39	30.69	0.11	7.73
27.861	18.39	30.69	-0.02	7.60
27.891	18.39	30.69	-0.02	7.60
27.921	18.40	30.70	-0.02	7.60
27.950	18.40	30.70	0.10	7.72
27.980	18.40	30.70	0.10	7.72
28.010	18.29	30.59	0.10	7.72
28.040	18.29	30.59	0.01	7.64
28.070	18.29	30.59	0.01	7.64
28.099	18.34	30.64	0.01	7.64
28.129	18.34	30.64	0.04	7.66
28.159	18.34	30.64	0.04	7.66
28.189	18.38	30.68	0.04	7.66
28.218	18.38	30.68	0.10	7.73
28.248	18.38	30.68	0.10	7.73
28.278	18.30	30.60	0.10	7.73
28.308	18.30	30.60	-0.03	7.59
28.337	18.30	30.60	-0.03	7.59
28.367	18.41	30.70	-0.03	7.59
28.397	18.41	30.70	0.10	7.72
28.427	18.41	30.70	0.10	7.72
28.456	18.39	30.68	0.10	7.72
28.486	18.39	30.68	0.01	7.63
28.516	18.39	30.68	0.01	7.63
28.546	18.38	30.68	0.01	7.63
28.575	18.38	30.68	0.05	7.67
28.605	18.38	30.68	0.05	7.67
28.635	18.38	30.67	0.05	7.67
28.665	18.38	30.67	0.10	7.72
28.695	18.38	30.67	0.10	7.72
28.724	18.35	30.65	0.10	7.72
28.754	18.35	30.65	-0.03	7.59
28.784	18.35	30.65	-0.03	7.59
28.814	18.33	30.63	-0.03	7.59
28.843	18.33	30.63	0.11	7.73
28.873	18.33	30.63	0.11	7.73
28.903	18.33	30.63	0.11	7.73
28.933	18.33	30.63	0.01	7.63
28.962	18.33	30.63	0.01	7.63
28.992	18.34	30.64	0.01	7.63
29.022	18.34	30.64	0.05	7.67
29.052	18.34	30.64	0.05	7.67
29.081	18.36	30.66	0.05	7.67
29.111	18.36	30.66	0.10	7.72
29.141	18.36	30.66	0.10	7.72
29.171	18.25	30.54	0.10	7.72
29.201	18.25	30.54	-0.02	7.60
29.230	18.25	30.54	-0.02	7.60
29.260	18.36	30.66	-0.02	7.60
29.290	18.36	30.66	0.11	7.73
29.320	18.36	30.66	0.11	7.73
29.349	18.34	30.63	0.11	7.73
29.379	18.34	30.63	0.01	7.63
29.409	18.34	30.63	0.01	7.63
29.439	18.36	30.66	0.01	7.63
29.468	18.36	30.66	0.06	7.68
29.498	18.36	30.66	0.06	7.68
29.528	18.39	30.69	0.06	7.68
29.558	18.39	30.69	0.09	7.71
29.587	18.39	30.69	0.09	7.71
29.617	18.35	30.65	0.09	7.71
29.647	18.35	30.65	-0.03	7.59
29.677	18.35	30.65	-0.03	7.59
29.706	18.36	30.66	-0.03	7.59
29.736	18.36	30.66	0.11	7.73
29.766	18.36	30.66	0.11	7.73
29.796	18.36	30.66	0.11	7.73
29.826	18.36	30.66	0.01	7.63
29.855	18.36	30.66	0.01	7.63
29.885	18.33	30.63	0.01	7.63
29.915	18.33	30.63	0.06	7.68
29.945	18.33	30.63	0.06	7.68
29.974	18.41	30.71	0.06	7.68
30.004	18.41	30.71	0.09	7.71
30.034	18.41	30.71	0.09	7.71
30.064	18.36	30.66	0.09	7.71
30.093	18.36	30.66	-0.02	7.60
30.123	18.36	30.66	-0.02	7.60
30.153	18.41	30.71	-0.02	7.60
30.183	18.41	30.71	0.11	7.73
30.212	18.41	30.71	0.11	7.73
30.242	18.30	30.59	0.11	7.73
30.272	18.30	30.59	0.00	7.62
30.302	18.30	30.59	0.00	7.62
30.332	18.39	30.68	0.00	7.62
30.361	18.39	30.68	0.06	7.68
30.391	18.39	30.68	0.06	7.68
30.421	18.36	30.66	0.06	7.68
30.451	18.36	30.66	0.08	7.70
30.480	18.36	30.66	0.08	7.70
30.510	18.35	30.65	0.08	7.70
30.540	18.35	30.65	-0.02	7.60
30.570	18.35	30.65	-0.02	7.60
30.599	18.43	30.73	-0.02	7.60
30.629	18.43	30.73	0.11	7.73
30.659	18.43	30.73	0.11	7.73
30.689	18.35	30.64	0.11	7.73
30.718	18.35	30.64	0.00	7.62
30.748	18.35	30.64	0.00	7.62
30.778	18.38	30.68	0.00	7.62
30.808	18.38	30.68	0.07	7.69
30.837	18.38	30.68	0.07	7.69
30.867	18.43	30.72	0.07	7.69
30.897	18.43	30.72	0.07	7.69
30.927	18.43	30.72	0.07	7.69
30.956	18.34	30.63	0.07	7.69
30.986	18.34	30.63	-0.02	7.60
31.016	18.34	30.63	-0.02	7.60
31.046	18.39	30.68	-0.02	7.60
31.075	18.39	30.68	0.11	7.73
31.105	18.39	30.68	0.11	7.73
31.135	18.31	30.61	0.11	7.73
31.165	18.31	30.61	-0.00	7.62
31.195	18.31	30.61	-0.00	7.62
31.224	18.45	30.75	-0.00	7.62
31.254	18.45	30.75	0.07	7.69
31.284	18.45	30.75	0.07	7.69
31.314	18.44	30.74	0.07	7.69
31.343	18.44	30.74	0.07	7.69
31.373	18.44	30.74	0.07	7.69
31.403	18.39	30.69	0.07	7.69
31.433	18.39	30.69	-0.02	7.60
31.462	18.39	30.69	-0.02	7.60
31.492	18.35	30.64	-0.02	7.60
31.522	18.35	30.64	0.11	7.73
31.552	18.35	30.64	0.11	7.73
31.581	18.35	30.65	0.11	7.73
31.611	18.35	30.65	-0.00	7.62
31.641	18.35	30.65	-0.00	7.62
31.671	18.39	30.69	-0.00	7.62
31.700	18.39	30.69	0.07	7.69
31.730	18.39	30.69	0.07	7.69
31.760	18.44	30.74	0.07	7.69
31.790	18.44	30.74	0.06	7.68
31.820	18.44	30.74	0.06	7.68
31.849	18.38	30.68	0.06	7.68
31.879	18.38	30.68	-0.02	7.60
31.909	18.38	30.68	-0.02	7.60
31.939	18.47	30.77	-0.02	7.60
31.968	18.47	30.77	0.11	7.74
31.998	18.47	30.77	0.11	7.74
32.028	18.40	30.69	0.11	7.74
32.058	18.40	30.69	-0.01	7.61
32.087	18.40	30.69	-0.01	7.61
32.117	18.37	30.66	-0.01	7.61
32.147	18.37	30.66	0.08	7.70
32.177	18.37	30.66	0.08	7.70
32.206	18.38	30.67	0.08	7.70
32.236	18.38	30.67	0.05	7.67
32.266	18.38	30.67	0.05	7.67
32.296	18.29	30.59	0.05	7.67
32.326	18.29	30.59	-0.02	7.60
32.355	18.29	30.59	-0.02	7.60
32.385	18.38	30.67	-0.02	7.60
32.415	18.38	30.67	0.12	7.74
32.445	18.38	30.67	0.12	7.74
32.474	18.39	30.69	0.12	7.74
32.504	18.39	30.69	-0.01	7.61
32.534	18.39	30.69	-0.01	7.61
32.564	18.39	30.69	-0.01	7.61
32.593	18.39	30.69	0.08	7.70
32.623	18.39	30.69	0.08	7.70
32.653	18.44	30.73	0.08	7.70
32.683	18.44	30.73	0.04	7.66
32.712	18.44	30.73	0.04	7.66
32.742	18.37	30.67	0.04	7.66
32.772	18.37	30.67	-0.01	7.61
32.802	18.37	30.67	-0.01	7.61
32.831	18.47	30.77	-0.01	7.61
32.861	18.47	30.77	0.12	7.74
32.891	18.47	30.77	0.12	7.74
32.921	18.46	30.76	0.12	7.74
32.950	18.46	30.76	-0.02	7.60
32.980	18.46	30.76	-0.02	7.60
33.010	18.42	30.72	-0.02	7.60
33.040	18.42	30.72	0.08	7.70
33.070	18.42	30.72	0.08	7.70
33.099	18.42	30.72	0.08	7.70
33.129	18.42	30.72	0.04	7.66
33.159	18.42	30.72	0.04	7.66
33.189	18.40	30.70	0.04	7.66
33.218	18.40	30.70	-0.00	7.62
33.248	18.40	30.70	-0.00	7.62
33.278	18.46	30.75	-0.00	7.62
33.308	18.46	30.75	0.11	7.74
33.337	18.46	30.75	0.11	7.74
33.367	18.31	30.60	0.11	7.74
33.397	18.31	30.60	-0.02	7.60
33.427	18.31	30.60	-0.02	7.60
33.456	18.41	30.70	-0.02	7.60
33.486	18.41	30.70	0.08	7.70
33.516	18.41	30.70	0.08	7.70
33.546	18.44	30.73	0.08	7.70
33.576	18.44	30.73	0.03	7.65
33.605	18.44	30.73	0.03	7.65
33.635	18.36	30.66	0.03	7.65
33.665	18.36	30.66	-0.00	7.62
33.695	18.36	30.66	-0.00	7.62
33.724	18.43	30.73	-0.00	7.62
33.754	18.43	30.73	0.11	7.73
33.784	18.43	30.73	0.11	7.73
33.814	18.42	30.72	0.11	7.73
33.843	18.42	30.72	-0.02	7.60
33.873	18.42	30.72	-0.02	7.60
33.903	18.46	30.76	-0.02	7.60
33.933	18.46	30.76	0.09	7.71
33.962	18.46	30.76	0.09	7.71
33.992	18.45	30.75	0.09	7.71
34.022	18.45	30.75	0.03	7.65
34.052	18.45	30.75	0.03	7.65
34.081	18.45	30.75	0.03	7.65
34.111	18.45	30.75	0.01	7.63
34.141	18.45	30.75	0.01	7.63
34.171	18.55	30.85	0.01	7.63
34.201	18.55	30.85	0.11	7.74
34.230	18.55	30.85	0.11	7.74
34.260	18.45	30.75	0.11	7.74
34.290	18.45	30.75	-0.02	7.60
34.320	18.45	30.75	-0.02	7.60
34.349	18.52	30.82	-0.02	7.60
34.379	18.52	30.82	0.09	7.71
34.409	18.52	30.82	0.09	7.71
34.439	18.51	30.81	0.09	7.71
34.468	18.51	30.81	0.02	7.64
34.498	18.51	30.81	0.02	7.64
34.528	18.45	30.74	0.02	7.64
34.558	18.45	30.74	0.02	7.64
34.587	18.45	30.74	0.02	7.64
34.617	18.54	30.83	0.02	7.64
34.647	18.54	30.83	0.11	7.73
34.677	18.54	30.83	0.11	7.73
34.706	18.48	30.78	0.11	7.73
34.736	18.48	30.78	-0.02	7.60
34.766	18.48	30.78	-0.02	7.60
34.796	18.47	30.77	-0.02	7.60
34.826	18.47	30.77	0.09	7.72
34.855	18.47	30.77	0.09	7.72
34.885	18.45	30.75	0.09	7.72
34.915	18.45	30.75	0.01	7.64
34.945	18.45	30.75	0.01	7.64
34.974	18.48	30.78	0.01	7.64
35.004	18.48	30.78	0.03	7.65
35.034	18.48	30.78	0.03	7.65
35.064	18.52	30.81	0.03	7.65
35.093	18.52	30.81	0.11	7.74
35.123	18.52	30.81	0.11	7.74
35.153	18.53	30.82	0.11	7.74
35.183	18.53	30.82	-0.02	7.60
35.212	18.53	30.82	-0.02	7.60
35.242	18.50	30.80	-0.02	7.60
35.272	18.50	30.80	0.10	7.72
35.302	18.50	30.80	0.10	7.72
35.332	18.50	30.80	0.10	7.72
35.361	18.50	30.80	0.02	7.64
35.391	18.50	30.80	0.02	7.64
35.421	18.48	30.77	0.02	7.64
35.451	18.48	30.77	0.04	7.66
35.480	18.48	30.77	0.04	7.66
35.510	18.52	30.82	0.04	7.66
35.540	18.52	30.82	0.11	7.73
35.570	18.52	30.82	0.11	7.73
35.599	18.51	30.81	0.11	7.73
35.629	18.51	30.81	-0.02	7.60
35.659	18.51	30.81	-0.02	7.60
35.689	18.49	30.78	-0.02	7.60
35.718	18.49	30.78	0.10	7.73
35.748	18.49	30.78	0.10	7.73
35.778	18.50	30.79	0.10	7.73
35.808	18.50	30.79	0.01	7.63
35.837	18.50	30.79	0.01	7.63
35.867	18.48	30.77	0.01	7.63
35.897	18.48	30.77	0.05	7.67
35.927	18.48	30.77	0.05	7.67
35.956	18.56	30.85	0.05	7.67
35.986	18.56	30.85	0.10	7.72
36.016	18.56	30.85	0.10	7.72
36.046	18.44	30.74	0.10	7.72
36.076	18.44	30.74	-0.02	7.60
36.105	18.44	30.74	-0.02	7.60
36.135	18.50	30.79	-0.02	7.60
36.165	18.50	30.79	0.11	7.73
36.195	18.50	30.79	0.11	7.73
36.224	18.48	30.77	0.11	7.73
36.254	18.48	30.77	0.01	7.63
36.284	18.48	30.77	0.01	7.63
36.314	18.39	30.69	0.01	7.63
36.343	18.39	30.69	0.06	7.68
36.373	18.39	30.69	0.06	7.68
36.403	18.55	30.84	0.06	7.68
36.433	18.55	30.84	0.09	7.71
36.462	18.55	30.84	0.09	7.71
36.492	18.56	30.86	0.09	7.71
36.522	18.56	30.86	-0.02	7.60
36.552	18.56	30.86	-0.02	7.60
36.582	18.51	30.81	-0.02	7.60
36.611	18.51	30.81	0.11	7.73
36.641	18.51	30.81	0.11	7.73
36.671	18.57	30.87	0.11	7.73
36.701	18.57	30.87	0.01	7.63
36.730	18.57	30.87	0.01	7.63
36.760	18.55	30.84	0.01	7.63
36.790	18.55	30.84	0.06	7.68
36.820	18.55	30.84	0.06	7.68
36.849	18.53	30.83	0.06	7.68
36.879	18.53	30.83	0.08	7.70
36.909	18.53	30.83	0.08	7.70
36.939	18.43	30.73	0.08	7.70
36.968	18.43	30.73	-0.02	7.60
36.998	18.43	30.73	-0.02	7.60
37.028	18.52	30.82	-0.02	7.60
37.058	18.52	30.82	0.11	7.73
37.087	18.52	30.82	0.11	7.73
37.117	18.50	30.79	0.11	7.73
37.147	18.50	30.79	-0.00	7.62
37.177	18.50	30.79	-0.00	7.62
37.207	18.46	30.76	-0.00	7.62
37.236	18.46	30.76	0.06	7.68
37.266	18.46	30.76	0.06	7.68
37.296	18.50	30.80	0.06	7.68
37.326	18.50	30.80	0.07	7.69
37.355	18.50	30.80	0.07	7.69
37.385	18.47	30.77	0.07	7.69
37.415	18.47	30.77	-0.02	7.60
37.445	18.47	30.77	-0.02	7.60
37.474	18.49	30.78	-0.02	7.60
37.504	18.49	30.78	0.11	7.73
37.534	18.49	30.78	0.11	7.73
37.564	18.52	30.82	0.11	7.73
37.593	18.52	30.82	-0.01	7.61
37.623	18.52	30.82	-0.01	7.61
37.653	18.44	30.73	-0.01	7.61
37.683	18.44	30.73	0.07	7.69
37.712	18.44	30.73	0.07	7.69
37.742	18.49	30.78	0.07	7.69
37.772	18.49	30.78	0.06	7.68
37.802	18.49	30.78	0.06	7.68
37.832	18.46	30.75	0.06	7.68
37.861	18.46	30.75	-0.02	7.60
37.891	18.46	30.75	-0.02	7.60
37.921	18.45	30.75	-0.02	7.60
37.951	18.45	30.75	0.12	7.74
37.980	18.45	30.75	0.12	7.74
38.010	18.49	30.78	0.12	7.74
38.040	18.49	30.78	-0.01	7.62
38.070	18.49	30.78	-0.01	7.62
38.099	18.36	30.66	-0.01	7.62
38.129	18.36	30.66	0.07	7.69
38.159	18.36	30.66	0.07	7.69
38.189	18.52	30.81	0.07	7.69
38.218	18.52	30.81	0.05	7.67
38.248	18.52	30.81	0.05	7.67
38.278	18.49	30.79	0.05	7.67
38.308	18.49	30.79	-0.02	7.60
38.338	18.49	30.79	-0.02	7.60
38.367	18.48	30.78	-0.02	7.60
38.397	18.48	30.78	0.11	7.74
38.427	18.48	30.78	0.11	7.74
38.457	18.49	30.79	0.11	7.74
38.486	18.49	30.79	-0.01	7.61
38.516	18.49	30.79	-0.01	7.61
38.546	18.43	30.73	-0.01	7.61
38.576	18.43	30.73	0.08	7.70
38.605	18.43	30.73	0.08	7.70
38.635	18.52	30.82	0.08	7.70
38.665	18.52	30.82	0.05	7.67
38.695	18.52	30.82	0.05	7.67
38.724	18.41	30.71	0.05	7.67
38.754	18.41	30.71	-0.01	7.61
38.784	18.41	30.71	-0.01	7.61
38.814	18.42	30.72	-0.01	7.61
38.843	18.42	30.72	0.12	7.74
38.873	18.42	30.72	0.12	7.74
38.903	18.50	30.80	0.12	7.74
38.933	18.50	30.80	-0.02	7.60
38.963	18.50	30.80	-0.02	7.60
38.992	18.44	30.74	-0.02	7.60
39.022	18.44	30.74	0.08	7.70
39.052	18.44	30.74	0.08	7.70
39.082	18.50	30.80	0.08	7.70
39.111	18.50	30.80	0.04	7.66
39.141	18.50	30.80	0.04	7.66
39.171	18.46	30.76	0.04	7.66
39.201	18.46	30.76	-0.01	7.61
39.230	18.46	30.76	-0.01	7.61
39.260	18.47	30.77	-0.01	7.61
39.290	18.47	30.77	0.11	7.73
39.320	18.47	30.77	0.11	7.73
39.349	18.53	30.83	0.11	7.73
39.379	18.53	30.83	-0.02	7.60
39.409	18.53	30.83	-0.02	7.60
39.439	18.44	30.74	-0.02	7.60
39.469	18.44	30.74	0.08	7.70
39.498	18.44	30.74	0.08	7.70
39.528	18.49	30.78	0.08	7.70
39.558	18.49	30.78	0.03	7.65
39.588	18.49	30.78	0.03	7.65
39.617	18.41	30.71	0.03	7.65
39.647	18.41	30.71	-0.00	7.62
39.677	18.41	30.71	-0.00	7.62
39.707	18.46	30.76	-0.00	7.62
39.736	18.46	30.76	0.11	7.74
39.766	18.46	30.76	0.11	7.74
39.796	18.45	30.74	0.11	7.74
39.826	18.45	30.74	-0.02	7.60
39.855	18.45	30.74	-0.02	7.60
39.885	18.40	30.70	-0.02	7.60
39.915	18.40	30.70	0.08	7.70
39.945	18.40	30.70	0.08	7.70
39.974	18.47	30.76	0.08	7.70
40.004	18.47	30.76	0.03	7.65
40.034	18.47	30.76	0.03	7.65
40.064	18.52	30.82	0.03	7.65
40.094	18.52	30.82	0.01	7.63
40.123	18.52	30.82	0.01	7.63
40.153	18.51	30.80	0.01	7.63
40.183	18.51	30.80	0.11	7.73
40.213	18.51	30.80	0.11	7.73
40.242	18.55	30.85	0.11	7.73
40.272	18.55	30.85	-0.02	7.60
40.302	18.55	30.85	-0.02	7.60
40.332	18.39	30.68	-0.02	7.60
40.361	18.39	30.68	0.08	7.70
40.391	18.39	30.68	0.08	7.70
40.421	18.48	30.77	0.08	7.70
40.451	18.48	30.77	0.02	7.64
40.480	18.48	30.77	0.02	7.64
40.510	18.40	30.69	0.02	7.64
40.540	18.40	30.69	0.01	7.63
40.570	18.40	30.69	0.01	7.63
40.600	18.40	30.70	0.01	7.63
40.629	18.40	30.70	0.11	7.73
40.659	18.40	30.70	0.11	7.73
40.689	18.43	30.72	0.11	7.73
40.719	18.43	30.72	-0.02	7.60
40.748	18.43	30.72	-0.02	7.60
40.778	18.35	30.65	-0.02	7.60
40.808	18.35	30.65	0.09	7.72
40.838	18.35	30.65	0.09	7.72
40.867	18.46	30.76	0.09	7.72
40.897	18.46	30.76	0.02	7.64
40.927	18.46	30.76	0.02	7.64
40.957	18.39	30.68	0.02	7.64
40.986	18.39	30.68	0.03	7.65
41.016	18.39	30.68	0.03	7.65
41.046	18.43	30.73	0.03	7.65
41.076	18.43	30.73	0.11	7.73
41.105	18.43	30.73	0.11	7.73
41.135	18.41	30.71	0.11	7.73
41.165	18.41	30.71	-0.03	7.59
41.195	18.41	30.71	-0.03	7.59
41.225	18.35	30.65	-0.03	7.59
41.254	18.35	30.65	0.09	7.72
41.284	18.35	30.65	0.09	7.72
41.314	18.41	30.70	0.09	7.72
41.344	18.41	30.70	0.02	7.64
41.373	18.41	30.70	0.02	7.64
41.403	18.39	30.68	0.02	7.64
41.433	18.39	30.68	0.03	7.65
41.463	18.39	30.68	0.03	7.65
41.492	18.38	30.67	0.03	7.65
41.522	18.38	30.67	0.11	7.73
41.552	18.38	30.67	0.11	7.73
41.582	18.35	30.64	0.11	7.73
41.611	18.35	30.64	-0.02	7.60
41.641	18.35	30.64	-0.02	7.60
41.671	18.39	30.69	-0.02	7.60
41.701	18.39	30.69	0.10	7.72
41.730	18.39	30.69	0.10	7.72
41.760	18.46	30.75	0.10	7.72
41.790	18.46	30.75	0.01	7.63
41.820	18.46	30.75	0.01	7.63
41.850	18.44	30.73	0.01	7.63
41.879	18.44	30.73	0.05	7.67
41.909	18.44	30.73	0.05	7.67
41.939	18.42	30.72	0.05	7.67
41.969	18.42	30.72	0.10	7.72
41.998	18.42	30.72	0.10	7.72
42.028	18.41	30.70	0.10	7.72
42.058	18.41	30.70	-0.03	7.59
42.088	18.41	30.70	-0.03	7.59
42.117	18.37	30.67	-0.03	7.59
42.147	18.37	30.67	0.10	7.73
42.177	18.37	30.67	0.10	7.73
42.207	18.45	30.75	0.10	7.73
42.236	18.45	30.75	0.01	7.63
42.266	18.45	30.75	0.01	7.63
42.296	18.40	30.69	0.01	7.63
42.326	18.40	30.69	0.05	7.67
42.356	18.40	30.69	0.05	7.67
42.385	18.35	30.65	0.05	7.67
42.415	18.35	30.65	0.10	7.72
42.445	18.35	30.65	0.10	7.72
42.475	18.43	30.73	0.10	7.72
42.504	18.43	30.73	-0.03	7.59
42.534	18.43	30.73	-0.03	7.59
42.564	18.36	30.65	-0.03	7.59
42.594	18.36	30.65	0.10	7.72
42.623	18.36	30.65	0.10	7.72
42.653	18.46	30.76	0.10	7.72
42.683	18.46	30.76	0.01	7.63
42.713	18.46	30.76	0.01	7.63
42.742	18.43	30.73	0.01	7.63
42.772	18.43	30.73	0.05	7.68
42.802	18.43	30.73	0.05	7.68
42.832	18.41	30.70	0.05	7.68
42.861	18.41	30.70	0.09	7.71
42.891	18.41	30.70	0.09	7.71
42.921	18.43	30.72	0.09	7.71
42.951	18.43	30.72	-0.03	7.59
42.981	18.43	30.72	-0.03	7.59
43.010	18.41	30.70	-0.03	7.59
43.040	18.41	30.70	0.11	7.73
43.070	18.41	30.70	0.11	7.73
43.100	18.46	30.75	0.11	7.73
43.129	18.46	30.75	0.01	7.63
43.159	18.46	30.75	0.01	7.63
43.189	18.40	30.70	0.01	7.63
43.219	18.40	30.70	0.06	7.68
43.248	18.40	30.70	0.06	7.68
43.278	18.32	30.62	0.06	7.68
43.308	18.32	30.62	0.08	7.70
43.338	18.32	30.62	0.08	7.70
43.368	18.38	30.68	0.08	7.70
43.397	18.38	30.68	-0.02	7.60
43.427	18.38	30.68	-0.02	7.60
43.457	18.36	30.66	-0.02	7.60
43.487	18.36	30.66	0.11	7.74
43.516	18.36	30.66	0.11	7.74
43.546	18.42	30.71	0.11	7.74
43.576	18.42	30.71	-0.00	7.62
43.606	18.42	30.71	-0.00	7.62
43.635	18.38	30.68	-0.00	7.62
43.665	18.38	30.68	0.06	7.68
43.695	18.38	30.68	0.06	7.68
43.725	18.44	30.74	0.06	7.68
43.754	18.44	30.74	0.08	7.70
43.784	18.44	30.74	0.08	7.70
43.814	18.46	30.75	0.08	7.70
43.844	18.46	30.75	-0.02	7.60
43.873	18.46	30.75	-0.02	7.60
43.903	18.34	30.63	-0.02	7.60
43.933	18.34	30.63	0.11	7.73
43.963	18.34	30.63	0.11	7.73
43.993	18.41	30.70	0.11	7.73
44.022	18.41	30.70	-0.00	7.62
44.052	18.41	30.70	-0.00	7.62
44.082	18.39	30.69	-0.00	7.62
44.112	18.39	30.69	0.07	7.69
44.141	18.39	30.69	0.07	7.69
44.171	18.36	30.66	0.07	7.69
44.201	18.36	30.66	0.06	7.69
44.231	18.36	30.66	0.06	7.69
44.260	18.40	30.70	0.06	7.69
44.290	18.40	30.70	-0.02	7.60
44.320	18.40	30.70	-0.02	7.60
44.350	18.43	30.73	-0.02	7.60
44.379	18.43	30.73	0.11	7.73
44.409	18.43	30.73	0.11	7.73
44.439	18.47	30.77	0.11	7.73
44.469	18.47	30.77	-0.01	7.62
44.499	18.47	30.77	-0.01	7.62
44.528	18.45	30.74	-0.01	7.62
44.558	18.45	30.74	0.07	7.69
44.588	18.45	30.74	0.07	7.69
44.618	18.42	30.72	0.07	7.69
44.647	18.42	30.72	0.05	7.68
44.677	18.42	30.72	0.05	7.68
44.707	18.46	30.75	0.05	7.68
44.737	18.46	30.75	-0.02	7.60
44.766	18.46	30.75	-0.02	7.60
44.796	18.37	30.67	-0.02	7.60
44.826	18.37	30.67	0.11	7.73
44.856	18.37	30.67	0.11	7.73
44.885	18.46	30.76	0.11	7.73
44.915	18.46	30.76	-0.01	7.61
44.945	18.46	30.76	-0.01	7.61
44.975	18.42	30.72	-0.01	7.61
45.004	18.42	30.72	0.07	7.69
45.034	18.42	30.72	0.07	7.69
45.064	18.43	30.73	0.07	7.69
45.094	18.43	30.73	0.05	7.67
45.124	18.43	30.73	0.05	7.67
45.153	18.48	30.77	0.05	7.67
45.183	18.48	30.77	-0.02	7.60
45.213	18.48	30.77	-0.02	7.60
45.243	18.39	30.68	-0.02	7.60
45.272	18.39	30.68	0.11	7.74
45.302	18.39	30.68	0.11	7.74
45.332	18.42	30.72	0.11	7.74
45.362	18.42	30.72	-0.01	7.61
45.391	18.42	30.72	-0.01	7.61
45.421	18.41	30.71	-0.01	7.61
45.451	18.41	30.71	0.08	7.70
45.481	18.41	30.71	0.08	7.70
45.510	18.42	30.72	0.08	7.70
45.540	18.42	30.72	0.04	7.66
45.570	18.42	30.72	0.04	7.66
45.600	18.49	30.78	0.04	7.66
45.629	18.49	30.78	-0.01	7.61
45.659	18.49	30.78	-0.01	7.61
45.689	18.45	30.74	-0.01	7.61
45.719	18.45	30.74	0.12	7.74
45.749	18.45	30.74	0.12	7.74
45.778	18.45	30.75	0.12	7.74
45.808	18.45	30.75	-0.02	7.60
45.838	18.45	30.75	-0.02	7.60
45.868	18.40	30.70	-0.02	7.60
45.897	18.40	30.70	0.08	7.70
45.927	18.40	30.70	0.08	7.70
45.957	18.40	30.69	0.08	7.70
45.987	18.40	30.69	0.04	7.66
46.016	18.40	30.69	0.04	7.66
46.046	18.53	30.83	0.04	7.66
46.076	18.53	30.83	-0.00	7.62
46.106	18.53	30.83	-0.00	7.62
46.135	18.50	30.80	-0.00	7.62
46.165	18.50	30.80	0.11	7.74
46.195	18.50	30.80	0.11	7.74
46.225	18.50	30.79	0.11	7.74
46.255	18.50	30.79	-0.02	7.60
46.284	18.50	30.79	-0.02	7.60
46.314	18.48	30.78	-0.02	7.60
46.344	18.48	30.78	0.08	7.70
46.374	18.48	30.78	0.08	7.70
46.403	18.47	30.77	0.08	7.70
46.433	18.47	30.77	0.03	7.65
46.463	18.47	30.77	0.03	7.65
46.493	18.48	30.78	0.03	7.65
46.522	18.48	30.78	0.00	7.62
46.552	18.48	30.78	0.00	7.62
46.582	18.45	30.75	0.00	7.62
46.612	18.45	30.75	0.12	7.74
46.641	18.45	30.75	0.12	7.74
46.671	18.48	30.77	0.12	7.74
46.701	18.48	30.77	-0.02	7.60
46.731	18.48	30.77	-0.02	7.60
46.760	18.37	30.67	-0.02	7.60
46.790	18.37	30.67	0.09	7.71
46.820	18.37	30.67	0.09	7.71
46.850	18.42	30.72	0.09	7.71
46.880	18.42	30.72	0.03	7.65
46.909	18.42	30.72	0.03	7.65
46.939	18.46	30.76	0.03	7.65
46.969	18.46	30.76	0.01	7.64
46.999	18.46	30.76	0.01	7.64
47.028	18.40	30.69	0.01	7.64
47.058	18.40	30.69	0.11	7.73
47.088	18.40	30.69	0.11	7.73
47.118	18.49	30.78	0.11	7.73
47.147	18.49	30.78	-0.02	7.60
47.177	18.49	30.78	-0.02	7.60
47.207	18.44	30.74	-0.02	7.60
47.237	18.44	30.74	0.09	7.71
47.266	18.44	30.74	0.09	7.71
47.296	18.42	30.72	0.09	7.71
47.326	18.42	30.72	0.02	7.64
47.356	18.42	30.72	0.02	7.64
47.386	18.47	30.77	0.02	7.64
47.415	18.47	30.77	0.03	7.65
47.445	18.47	30.77	0.03	7.65
47.475	18.43	30.72	0.03	7.65
47.505	18.43	30.72	0.11	7.73
47.534	18.43	30.72	0.11	7.73
47.564	18.47	30.77	0.11	7.73
47.594	18.47	30.77	-0.02	7.60
47.624	18.47	30.77	-0.02	7.60
47.653	18.43	30.73	-0.02	7.60
47.683	18.43	30.73	0.10	7.72
47.713	18.43	30.73	0.10	7.72
47.743	18.41	30.70	0.10	7.72
47.772	18.41	30.70	0.01	7.63
47.802	18.41	30.70	0.01	7.63
47.832	18.46	30.75	0.01	7.63
47.862	18.46	30.75	0.03	7.65
47.892	18.46	30.75	0.03	7.65
47.921	18.39	30.69	0.03	7.65
47.951	18.39	30.69	0.11	7.73
47.981	18.39	30.69	0.11	7.73
48.011	18.44	30.74	0.11	7.73
48.040	18.44	30.74	-0.03	7.59
48.070	18.44	30.74	-0.03	7.59
48.100	18.47	30.77	-0.03	7.59
48.130	18.47	30.77	0.10	7.72
48.159	18.47	30.77	0.10	7.72
48.189	18.43	30.73	0.10	7.72
48.219	18.43	30.73	0.01	7.63
48.249	18.43	30.73	0.01	7.63
48.278	18.48	30.77	0.01	7.63
48.308	18.48	30.77	0.04	7.66
48.338	18.48	30.77	0.04	7.66
48.368	18.39	30.69	0.04	7.66
48.398	18.39	30.69	0.10	7.73
48.427	18.39	30.69	0.10	7.73
48.457	18.42	30.71	0.10	7.73
48.487	18.42	30.71	-0.02	7.60
48.517	18.42	30.71	-0.02	7.60
48.546	18.44	30.73	-0.02	7.60
48.576	18.44	30.73	0.10	7.72
48.606	18.44	30.73	0.10	7.72
48.636	18.42	30.72	0.10	7.72
48.665	18.42	30.72	0.01	7.63
48.695	18.42	30.72	0.01	7.63
48.725	18.45	30.75	0.01	7.63
48.755	18.45	30.75	0.05	7.67
48.784	18.45	30.75	0.05	7.67
48.814	18.42	30.72	0.05	7.67
48.844	18.42	30.72	0.10	7.72
48.874	18.42	30.72	0.10	7.72
48.903	18.42	30.72	0.10	7.72
48.933	18.42	30.72	-0.03	7.59
48.963	18.42	30.72	-0.03	7.59
48.993	18.46	30.75	-0.03	7.59
49.023	18.46	30.75	0.11	7.73
49.052	18.46	30.75	0.11	7.73
49.082	18.39	30.69	0.11	7.73
49.112	18.39	30.69	0.01	7.63
49.142	18.39	30.69	0.01	7.63
49.171	18.42	30.72	0.01	7.63
49.201	18.42	30.72	0.06	7.68
49.231	18.42	30.72	0.06	7.68
49.261	18.42	30.72	0.06	7.68
49.290	18.42	30.72	0.09	7.71
49.320	18.42	30.72	0.09	7.71
49.350	18.46	30.75	0.09	7.71
49.380	18.46	30.75	-0.03	7.59
49.409	18.46	30.75	-0.03	7.59
49.439	18.42	30.72	-0.03	7.59
49.469	18.42	30.72	0.11	7.73
49.499	18.42	30.72	0.11	7.73
49.529	18.39	30.69	0.11	7.73
49.558	18.39	30.69	0.00	7.62
49.588	18.39	30.69	0.00	7.62
49.618	18.45	30.75	0.00	7.62
49.647	18.45	30.75	0.06	7.68
49.677	18.45	30.75	0.06	7.68
49.707	18.43	30.73	0.06	7.68
49.737	18.43	30.73	0.08	7.70
49.766	18.43	30.73	0.08	7.70
49.796	18.51	30.81	0.08	7.70
49.826	18.51	30.81	-0.03	7.59
49.856	18.51	30.81	-0.03	7.59
49.886	18.50	30.79	-0.03	7.59
49.915	18.50	30.79	0.11	7.74
49.945	18.50	30.79	0.11	7.74
49.975	18.46	30.76	0.11	7.74
50.005	18.46	30.76	-0.01	7.62
50.034	18.46	30.76	-0.01	7.62
50.064	18.42	30.72	-0.01	7.62
50.094	18.42	30.72	0.07	7.69
50.124	18.42	30.72	0.07	7.69
50.153	18.39	30.68	0.07	7.69
50.183	18.39	30.68	0.07	7.69
50.213	18.39	30.68	0.07	7.69
50.243	18.48	30.77	0.07	7.69
50.272	18.48	30.77	-0.02	7.60
50.302	18.48	30.77	-0.02	7.60
50.332	18.41	30.71	-0.02	7.60
50.362	18.41	30.71	0.11	7.73
50.392	18.41	30.71	0.11	7.73
50.421	18.42	30.72	0.11	7.73
50.451	18.42	30.72	-0.01	7.61
50.481	18.42	30.72	-0.01	7.61
50.511	18.48	30.77	-0.01	7.61
50.540	18.48	30.77	0.07	7.69
50.570	18.48	30.77	0.07	7.69
50.600	18.45	30.75	0.07	7.69
50.630	18.45	30.75	0.06	7.69
50.659	18.45	30.75	0.06	7.69
50.689	18.49	30.79	0.06	7.69
50.719	18.49	30.79	-0.02	7.60
50.749	18.49	30.79	-0.02	7.60
50.778	18.43	30.73	-0.02	7.60
50.808	18.43	30.73	0.11	7.74
50.838	18.43	30.73	0.11	7.74
50.868	18.44	30.74	0.11	7.74
50.897	18.44	30.74	-0.01	7.61
50.927	18.44	30.74	-0.01	7.61
50.957	18.42	30.71	-0.01	7.61
50.987	18.42	30.71	0.07	7.69
51.017	18.42	30.71	0.07	7.69
51.046	18.45	30.75	0.07	7.69
51.076	18.45	30.75	0.05	7.67
51.106	18.45	30.75	0.05	7.67
51.136	18.50	30.79	0.05	7.67
51.165	18.50	30.79	-0.02	7.60
51.195	18.50	30.79	-0.02	7.60
51.225	18.43	30.73	-0.02	7.60
51.255	18.43	30.73	0.12	7.74
51.284	18.43	30.73	0.12	7.74
51.314	18.51	30.80	0.12	7.74
51.344	18.51	30.80	-0.01	7.61
51.374	18.51	30.80	-0.01	7.61
51.403	18.53	30.83	-0.01	7.61
51.433	18.53	30.83	0.08	7.70
51.463	18.53	30.83	0.08	7.70
51.493	18.41	30.71	0.08	7.70
51.523	18.41	30.71	0.05	7.67
51.552	18.41	30.71	0.05	7.67
51.582	18.45	30.75	0.05	7.67
51.612	18.45	30.75	-0.02	7.60
51.642	18.45	30.75	-0.02	7.60
51.671	18.51	30.81	-0.02	7.60
51.701	18.51	30.81	0.12	7.74
51.731	18.51	30.81	0.12	7.74
51.761	18.50	30.79	0.12	7.74
51.790	18.50	30.79	-0.02	7.60
51.820	18.50	30.79	-0.02	7.60
51.850	18.47	30.77	-0.02	7.60
51.880	18.47	30.77	0.08	7.70
51.909	18.47	30.77	0.08	7.70
51.939	18.47	30.77	0.08	7.70
51.969	18.47	30.77	0.04	7.66
51.999	18.47	30.77	0.04	7.66
52.028	18.54	30.83	0.04	7.66
52.058	18.54	30.83	-0.01	7.61
52.088	18.54	30.83	-0.01	7.61
52.118	18.42	30.72	-0.01	7.61
52.148	18.42	30.72	0.12	7.74
52.177	18.42	30.72	0.12	7.74
52.207	18.41	30.70	0.12	7.74
52.237	18.41	30.70	-0.02	7.60
52.267	18.41	30.70	-0.02	7.60
52.296	18.44	30.73	-0.02	7.60
52.326	18.44	30.73	0.08	7.70
52.356	18.44	30.73	0.08	7.70
52.386	18.41	30.71	0.08	7.70
52.415	18.41	30.71	0.03	7.65
52.445	18.41	30.71	0.03	7.65
52.475	18.48	30.77	0.03	7.65
52.505	18.48	30.77	-0.00	7.62
52.534	18.48	30.77	-0.00	7.62
52.564	18.40	30.70	-0.00	7.62
52.594	18.40	30.70	0.11	7.74
52.624	18.40	30.70	0.11	7.74
52.654	18.44	30.74	0.11	7.74
52.683	18.44	30.74	-0.02	7.60
52.713	18.44	30.74	-0.02	7.60
52.743	18.42	30.72	-0.02	7.60
52.773	18.42	30.72	0.08	7.70
52.802	18.42	30.72	0.08	7.70
52.832	18.42	30.72	0.08	7.70
52.862	18.42	30.72	0.02	7.64
52.892	18.42	30.72	0.02	7.64
52.921	18.45	30.74	0.02	7.64
52.951	18.45	30.74	0.00	7.63
52.981	18.45	30.74	0.00	7.63
53.011	18.43	30.73	0.00	7.63
53.040	18.43	30.73	0.11	7.74
53.070	18.43	30.73	0.11	7.74
53.100	18.42	30.71	0.11	7.74
53.130	18.42	30.71	-0.02	7.60
53.160	18.42	30.71	-0.02	7.60
53.189	18.40	30.69	-0.02	7.60
53.219	18.40	30.69	0.08	7.70
53.249	18.40	30.69	0.08	7.70
53.279	18.44	30.73	0.08	7.70
53.308	18.44	30.73	0.02	7.64
53.338	18.44	30.73	0.02	7.64
53.368	18.45	30.74	0.02	7.64
53.398	18.45	30.74	0.01	7.63
53.427	18.45	30.74	0.01	7.63
53.457	18.43	30.73	0.01	7.63
53.487	18.43	30.73	0.11	7.73
53.517	18.43	30.73	0.11	7.73
53.546	18.42	30.71	0.11	7.73
53.576	18.42	30.71	-0.02	7.60
53.606	18.42	30.71	-0.02	7.60
53.636	18.42	30.72	-0.02	7.60
53.665	18.42	30.72	0.09	7.71
53.695	18.42	30.72	0.09	7.71
53.725	18.35	30.65	0.09	7.71
53.755	18.35	30.65	0.02	7.64
53.785	18.35	30.65	0.02	7.64
53.814	18.48	30.78	0.02	7.64
53.844	18.48	30.78	0.02	7.64
53.874	18.48	30.78	0.02	7.64
53.904	18.39	30.69	0.02	7.64
53.933	18.39	30.69	0.11	7.73
53.963	18.39	30.69	0.11	7.73
53.993	18.37	30.67	0.11	7.73
54.023	18.37	30.67	-0.02	7.60
54.052	18.37	30.67	-0.02	7.60
54.082	18.38	30.67	-0.02	7.60
54.112	18.38	30.67	0.10	7.72
54.142	18.38	30.67	0.10	7.72
54.171	18.38	30.68	0.10	7.72
54.201	18.38	30.68	0.02	7.64
54.231	18.38	30.68	0.02	7.64
54.261	18.38	30.67	0.02	7.64
54.291	18.38	30.67	0.03	7.65
54.320	18.38	30.67	0.03	7.65
54.350	18.42	30.72	0.03	7.65
54.380	18.42	30.72	0.11	7.73
54.410	18.42	30.72	0.11	7.73
54.439	18.40	30.70	0.11	7.73
54.469	18.40	30.70	-0.02	7.60
54.499	18.40	30.70	-0.02	7.60
54.529	18.44	30.74	-0.02	7.60
54.558	18.44	30.74	0.09	7.72
54.588	18.44	30.74	0.09	7.72
54.618	18.43	30.73	0.09	7.72
54.648	18.43	30.73	0.01	7.63
54.677	18.43	30.73	0.01	7.63
54.707	18.49	30.79	0.01	7.63
54.737	18.49	30.79	0.03	7.65
54.767	18.49	30.79	0.03	7.65
54.796	18.38	30.68	0.03	7.65
54.826	18.38	30.68	0.11	7.73
54.856	18.38	30.68	0.11	7.73
54.886	18.36	30.66	0.11	7.73
54.916	18.36	30.66	-0.02	7.60
54.945	18.36	30.66	-0.02	7.60
54.975	18.46	30.75	-0.02	7.60
55.005	18.46	30.75	0.10	7.72
55.035	18.46	30.75	0.10	7.72
55.064	18.36	30.66	0.10	7.72
55.094	18.36	30.66	0.01	7.63
55.124	18.36	30.66	0.01	7.63
55.154	18.44	30.73	0.01	7.63
55.183	18.44	30.73	0.04	7.67
55.213	18.44	30.73	0.04	7.67
55.243	18.40	30.70	0.04	7.67
55.273	18.40	30.70	0.11	7.73
55.302	18.40	30.70	0.11	7.73
55.332	18.41	30.70	0.11	7.73
55.362	18.41	30.70	-0.02	7.60
55.392	18.41	30.70	-0.02	7.60
55.422	18.34	30.64	-0.02	7.60
55.451	18.34	30.64	0.10	7.72
55.481	18.34	30.64	0.10	7.72
55.511	18.39	30.68	0.10	7.72
55.541	18.39	30.68	0.01	7.63
55.570	18.39	30.68	0.01	7.63
55.600	18.40	30.70	0.01	7.63
55.630	18.40	30.70	0.05	7.67
55.660	18.40	30.70	0.05	7.67
55.689	18.34	30.64	0.05	7.67
55.719	18.34	30.64	0.10	7.72
55.749	18.34	30.64	0.10	7.72
55.779	18.34	30.64	0.10	7.72
55.808	18.34	30.64	-0.03	7.59
55.838	18.34	30.64	-0.03	7.59
55.868	18.39	30.69	-0.03	7.59
55.898	18.39	30.69	0.11	7.73
55.928	18.39	30.69	0.11	7.73
55.957	18.36	30.66	0.11	7.73
55.987	18.36	30.66	0.01	7.63
56.017	18.36	30.66	0.01	7.63
56.047	18.32	30.62	0.01	7.63
56.076	18.32	30.62	0.05	7.68
56.106	18.32	30.62	0.05	7.68
56.136	18.41	30.71	0.05	7.68
56.166	18.41	30.71	0.09	7.71
56.195	18.41	30.71	0.09	7.71
56.225	18.35	30.64	0.09	7.71
56.255	18.35	30.64	-0.03	7.59
56.285	18.35	30.64	-0.03	7.59
56.314	18.42	30.72	-0.03	7.59
56.344	18.42	30.72	0.11	7.73
56.374	18.42	30.72	0.11	7.73
56.404	18.40	30.70	0.11	7.73
56.434	18.40	30.70	0.01	7.63
56.463	18.40	30.70	0.01	7.63
56.493	18.51	30.81	0.01	7.63
56.523	18.51	30.81	0.06	7.68
56.553	18.51	30.81	0.06	7.68
56.582	18.37	30.66	0.06	7.68
56.612	18.37	30.66	0.09	7.71
56.642	18.37	30.66	0.09	7.71
56.672	18.40	30.69	0.09	7.71
56.701	18.40	30.69	-0.02	7.60
56.731	18.40	30.69	-0.02	7.60
56.761	18.45	30.74	-0.02	7.60
56.791	18.45	30.74	0.11	7.73
56.820	18.45	30.74	0.11	7.73
56.850	18.40	30.70	0.11	7.73
56.880	18.40	30.70	-0.00	7.62
56.910	18.40	30.70	-0.00	7.62
56.940	18.38	30.68	-0.00	7.62
56.969	18.38	30.68	0.06	7.69
56.999	18.38	30.68	0.06	7.69
57.029	18.41	30.70	0.06	7.69
57.059	18.41	30.70	0.08	7.70
57.088	18.41	30.70	0.08	7.70
57.118	18.38	30.67	0.08	7.70
57.148	18.38	30.67	-0.02	7.60
57.178	18.38	30.67	-0.02	7.60
57.207	18.41	30.71	-0.02	7.60
57.237	18.41	30.71	0.11	7.73
57.267	18.41	30.71	0.11	7.73
57.297	18.38	30.68	0.11	7.73
57.326	18.38	30.68	-0.01	7.62
57.356	18.38	30.68	-0.01	7.62
57.386	18.45	30.75	-0.01	7.62
57.416	18.45	30.75	0.07	7.69
57.445	18.45	30.75	0.07	7.69
57.475	18.41	30.70	0.07	7.69
57.505	18.41	30.70	0.07	7.69
57.535	18.41	30.70	0.07	7.69
57.565	18.33	30.63	0.07	7.69
57.594	18.33	30.63	-0.02	7.60
57.624	18.33	30.63	-0.02	7.60
57.654	18.39	30.68	-0.02	7.60
57.684	18.39	30.68	0.11	7.74
57.713	18.39	30.68	0.11	7.74
57.743	18.43	30.73	0.11	7.74
57.773	18.43	30.73	-0.01	7.62
57.803	18.43	30.73	-0.01	7.62
57.832	18.43	30.73	-0.01	7.62
57.862	18.43	30.73	0.07	7.69
57.892	18.43	30.73	0.07	7.69
57.922	18.37	30.67	0.07	7.69
57.951	18.37	30.67	0.06	7.68
57.981	18.37	30.67	0.06	7.68
58.011	18.43	30.73	0.06	7.68
58.041	18.43	30.73	-0.02	7.60
58.071	18.43	30.73	-0.02	7.60
58.100	18.36	30.66	-0.02	7.60
58.130	18.36	30.66	0.11	7.73
58.160	18.36	30.66	0.11	7.73
58.190	18.41	30.71	0.11	7.73
58.219	18.41	30.71	-0.01	7.61
58.249	18.41	30.71	-0.01	7.61
58.279	18.44	30.74	-0.01	7.61
58.309	18.44	30.74	0.07	7.69
58.338	18.44	30.74	0.07	7.69
58.368	18.35	30.65	0.07	7.69
58.398	18.35	30.65	0.05	7.67
58.428	18.35	30.65	0.05	7.67
58.457	18.32	30.62	0.05	7.67
58.487	18.32	30.62	-0.01	7.61
58.517	18.32	30.62	-0.01	7.61
58.547	18.42	30.72	-0.01	7.61
58.576	18.42	30.72	0.12	7.74
58.606	18.42	30.72	0.12	7.74
58.636	18.40	30.69	0.12	7.74
58.666	18.40	30.69	-0.01	7.61
58.696	18.40	30.69	-0.01	7.61
58.725	18.40	30.70	-0.01	7.61
58.755	18.40	30.70	0.08	7.70
58.785	18.40	30.70	0.08	7.70
58.815	18.33	30.63	0.08	7.70
58.844	18.33	30.63	0.04	7.66
58.874	18.33	30.63	0.04	7.66
58.904	18.34	30.63	0.04	7.66
58.934	18.34	30.63	-0.01	7.61
58.963	18.34	30.63	-0.01	7.61
58.993	18.38	30.67	-0.01	7.61
59.023	18.38	30.67	0.11	7.74
59.053	18.38	30.67	0.11	7.74
59.082	18.41	30.71	0.11	7.74
59.112	18.41	30.71	-0.02	7.60
59.142	18.41	30.71	-0.02	7.60
59.172	18.45	30.74	-0.02	7.60
59.202	18.45	30.74	0.08	7.70
59.231	18.45	30.74	0.08	7.70
59.261	18.35	30.65	0.08	7.70
59.291	18.35	30.65	0.03	7.65
59.321	18.35	30.65	0.03	7.65
59.350	18.35	30.64	0.03	7.65
59.380	18.35	30.64	0.00	7.62
59.410	18.35	30.64	0.00	7.62
59.440	18.35	30.65	0.00	7.62
59.469	18.35	30.65	0.11	7.73
59.499	18.35	30.65	0.11	7.73
59.529	18.32	30.61	0.11	7.73
59.559	18.32	30.61	-0.02	7.60
59.588	18.32	30.61	-0.02	7.60
59.618	18.36	30.66	-0.02	7.60
59.648	18.36	30.66	0.08	7.70
59.678	18.36	30.66	0.08	7.70
59.707	18.37	30.67	0.08	7.70
59.737	18.37	30.67	0.02	7.64
59.767	18.37	30.67	0.02	7.64
59.797	18.40	30.69	0.02	7.64
59.826	18.40	30.69	0.01	7.63
59.856	18.40	30.69	0.01	7.63
59.886	18.37	30.67	0.01	7.63
59.916	18.37	30.67	0.12	7.74
59.945	18.37	30.67	0.12	7.74
59.975	18.46	30.75	0.12	7.74
60.005	18.46	30.75	-0.02	7.60
60.035	18.46	30.75	-0.02	7.60
60.065	18.40	30.70	-0.02	7.60
60.094	18.40	30.70	0.09	7.71
60.124	18.40	30.70	0.09	7.71
60.154	18.40	30.70	0.09	7.71
60.184	18.40	30.70	0.02	7.64
60.213	18.40	30.70	0.02	7.64
60.243	18.41	30.70	0.02	7.64
60.273	18.41	30.70	0.02	7.64
60.303	18.41	30.70	0.02	7.64
60.332	18.40	30.70	0.02	7.64
60.362	18.40	30.70	0.11	7.73
60.392	18.40	30.70	0.11	7.73
60.422	18.45	30.74	0.11	7.73
60.451	18.45	30.74	-0.02	7.60
60.481	18.45	30.74	-0.02	7.60
60.511	18.29	30.58	-0.02	7.60
60.541	18.29	30.58	0.09	7.71
60.570	18.29	30.58	0.09	7.71
60.600	18.39	30.69	0.09	7.71
60.630	18.39	30.69	0.01	7.64
60.660	18.39	30.69	0.01	7.64
60.690	18.36	30.66	0.01	7.64
60.719	18.36	30.66	0.03	7.65
60.749	18.36	30.66	0.03	7.65
60.779	18.39	30.69	0.03	7.65
60.809	18.39	30.69	0.11	7.73
60.838	18.39	30.69	0.11	7.73
60.868	18.50	30.79	0.11	7.73
60.898	18.50	30.79	-0.02	7.60
60.928	18.50	30.79	-0.02	7.60
60.957	18.47	30.76	-0.02	7.60
60.987	18.47	30.76	0.10	7.72
61.017	18.47	30.76	0.10	7.72
61.047	18.40	30.69	0.10	7.72
61.076	18.40	30.69	0.01	7.63
61.106	18.40	30.69	0.01	7.63
61.136	18.38	30.68	0.01	7.63
61.166	18.38	30.68	0.04	7.67
61.196	18.38	30.68	0.04	7.67
61.225	18.43	30.73	0.04	7.67
61.255	18.43	30.73	0.11	7.73
61.285	18.43	30.73	0.11	7.73
61.315	18.48	30.77	0.11	7.73
61.344	18.48	30.77	-0.03	7.59
61.374	18.48	30.77	-0.03	7.59
61.404	18.44	30.74	-0.03	7.59
61.434	18.44	30.74	0.10	7.73
61.463	18.44	30.74	0.10	7.73
61.493	18.44	30.73	0.10	7.73
61.523	18.44	30.73	0.01	7.63
61.553	18.44	30.73	0.01	7.63
61.582	18.44	30.74	0.01	7.63
61.612	18.44	30.74	0.05	7.67
61.642	18.44	30.74	0.05	7.67
61.672	18.42	30.71	0.05	7.67
61.701	18.42	30.71	0.10	7.72
61.731	18.42	30.71	0.10	7.72
61.761	18.40	30.70	0.10	7.72
61.791	18.40	30.70	-0.02	7.60
61.821	18.40	30.70	-0.02	7.60
61.850	18.48	30.77	-0.02	7.60
61.880	18.48	30.77	0.11	7.73
61.910	18.48	30.77	0.11	7.73
61.940	18.36	30.66	0.11	7.73
61.969	18.36	30.66	0.01	7.63
61.999	18.36	30.66	0.01	7.63
62.029	18.39	30.68	0.01	7.63
62.059	18.39	30.68	0.05	7.68
62.088	18.39	30.68	0.05	7.68
62.118	18.43	30.73	0.05	7.68
62.148	18.43	30.73	0.09	7.71
62.178	18.43	30.73	0.09	7.71
62.207	18.45	30.75	0.09	7.71
62.237	18.45	30.75	-0.03	7.59
62.267	18.45	30.75	-0.03	7.59
62.297	18.39	30.69	-0.03	7.59
62.327	18.39	30.69	0.11	7.73
62.356	18.39	30.69	0.11	7.73
62.386	18.44	30.74	0.11	7.73
62.416	18.44	30.74	0.00	7.62
62.446	18.44	30.74	0.00	7.62
62.475	18.41	30.70	0.00	7.62
62.505	18.41	30.70	0.07	7.69
62.535	18.41	30.70	0.07	7.69
62.565	18.49	30.79	0.07	7.69
62.594	18.49	30.79	0.08	7.70
62.624	18.49	30.79	0.08	7.70
62.654	18.47	30.77	0.08	7.70
62.684	18.47	30.77	-0.03	7.59
62.713	18.47	30.77	-0.03	7.59
62.743	18.44	30.74	-0.03	7.59
62.773	18.44	30.74	0.11	7.74
62.803	18.44	30.74	0.11	7.74
62.833	18.40	30.69	0.11	7.74
62.862	18.40	30.69	-0.00	7.62
62.892	18.40	30.69	-0.00	7.62
62.922	18.35	30.65	-0.00	7.62
62.952	18.35	30.65	0.07	7.69
62.981	18.35	30.65	0.07	7.69
63.011	18.37	30.67	0.07	7.69
63.041	18.37	30.67	0.06	7.69
63.071	18.37	30.67	0.06	7.69
63.100	18.55	30.84	0.06	7.69
63.130	18.55	30.84	-0.02	7.60
63.160	18.55	30.84	-0.02	7.60
63.190	18.50	30.80	-0.02	7.60
63.219	18.50	30.80	0.11	7.73
63.249	18.50	30.80	0.11	7.73
63.279	18.58	30.87	0.11	7.73
63.309	18.58	30.87	-0.01	7.61
63.338	18.58	30.87	-0.01	7.61
63.368	18.49	30.79	-0.01	7.61
63.398	18.49	30.79	0.08	7.70
63.428	18.49	30.79	0.08	7.70
63.458	18.55	30.85	0.08	7.70
63.487	18.55	30.85	0.05	7.67
63.517	18.55	30.85	0.05	7.67
63.547	18.58	30.88	0.05	7.67
63.577	18.58	30.88	-0.02	7.60
63.606	18.58	30.88	-0.02	7.60
63.636	18.55	30.85	-0.02	7.60
63.666	18.55	30.85	0.11	7.74
63.696	18.55	30.85	0.11	7.74
63.725	18.53	30.83	0.11	7.74
63.755	18.53	30.83	-0.01	7.61
63.785	18.53	30.83	-0.01	7.61
63.815	18.48	30.78	-0.01	7.61
63.844	18.48	30.78	0.08	7.70
63.874	18.48	30.78	0.08	7.70
63.904	18.49	30.79	0.08	7.70
63.934	18.49	30.79	0.04	7.66
63.964	18.49	30.79	0.04	7.66
63.993	18.60	30.90	0.04	7.66
64.023	18.60	30.90	-0.01	7.61
64.053	18.60	30.90	-0.01	7.61
64.083	18.56	30.85	-0.01	7.61
64.112	18.56	30.85	0.11	7.73
64.142	18.56	30.85	0.11	7.73
64.172	18.55	30.84	0.11	7.73
64.202	18.55	30.84	-0.02	7.60
64.231	18.55	30.84	-0.02	7.60
64.261	18.50	30.80	-0.02	7.60
64.291	18.50	30.80	0.08	7.70
64.321	18.50	30.80	0.08	7.70
64.350	18.55	30.85	0.08	7.70
64.380	18.55	30.85	0.03	7.65
64.410	18.55	30.85	0.03	7.65
64.440	18.55	30.85	0.03	7.65
64.469	18.55	30.85	-0.00	7.62
64.499	18.55	30.85	-0.00	7.62
64.529	18.55	30.85	-0.00	7.62
64.559	18.55	30.85	0.11	7.73
64.589	18.55	30.85	0.11	7.73
64.618	18.53	30.83	0.11	7.73
64.648	18.53	30.83	-0.02	7.60
64.678	18.53	30.83	-0.02	7.60
64.708	18.52	30.82	-0.02	7.60
64.737	18.52	30.82	0.09	7.71
64.767	18.52	30.82	0.09	7.71
64.797	18.56	30.85	0.09	7.71
64.827	18.56	30.85	0.03	7.65
64.856	18.56	30.85	0.03	7.65
64.886	18.53	30.83	0.03	7.65
64.916	18.53	30.83	0.01	7.63
64.946	18.53	30.83	0.01	7.63
64.975	18.57	30.87	0.01	7.63
65.005	18.57	30.87	0.11	7.73
65.035	18.57	30.87	0.11	7.73
65.065	18.52	30.82	0.11	7.73
65.095	18.52	30.82	-0.02	7.60
65.124	18.52	30.82	-0.02	7.60
65.154	18.55	30.85	-0.02	7.60
65.184	18.55	30.85	0.09	7.71
65.214	18.55	30.85	0.09	7.71
65.243	18.56	30.86	0.09	7.71
65.273	18.56	30.86	0.01	7.64
65.303	18.56	30.86	0.01	7.64
65.333	18.61	30.91	0.01	7.64
65.362	18.61	30.91	0.03	7.65
65.392	18.61	30.91	0.03	7.65
65.422	18.65	30.94	0.03	7.65
65.452	18.65	30.94	0.11	7.73
65.481	18.65	30.94	0.11	7.73
65.511	18.57	30.87	0.11	7.73
65.541	18.57	30.87	-0.02	7.60
65.571	18.57	30.87	-0.02	7.60
65.600	18.57	30.87	-0.02	7.60
65.630	18.57	30.87	0.10	7.72
65.660	18.57	30.87	0.10	7.72
65.690	18.59	30.88	0.10	7.72
65.720	18.59	30.88	0.01	7.64
65.749	18.59	30.88	0.01	7.64
65.779	18.61	30.90	0.01	7.64
65.809	18.61	30.90	0.03	7.65
65.839	18.61	30.90	0.03	7.65
65.868	18.60	30.89	0.03	7.65
65.898	18.60	30.89	0.11	7.73
65.928	18.60	30.89	0.11	7.73
65.958	18.62	30.92	0.11	7.73
65.987	18.62	30.92	-0.02	7.60
66.017	18.62	30.92	-0.02	7.60
66.047	18.52	30.82	-0.02	7.60
66.077	18.52	30.82	0.10	7.72
66.106	18.52	30.82	0.10	7.72
66.136	18.59	30.88	0.10	7.72
66.166	18.59	30.88	0.01	7.63
66.196	18.59	30.88	0.01	7.63
66.226	18.62	30.92	0.01	7.63
66.255	18.62	30.92	0.05	7.67
66.285	18.62	30.92	0.05	7.67
66.315	18.56	30.86	0.05	7.67
66.345	18.56	30.86	0.10	7.72
66.374	18.56	30.86	0.10	7.72
66.404	18.57	30.87	0.10	7.72
66.434	18.57	30.87	-0.03	7.59
66.464	18.57	30.87	-0.03	7.59
66.493	18.53	30.82	-0.03	7.59
66.523	18.53	30.82	0.11	7.73
66.553	18.53	30.82	0.11	7.73
66.583	18.55	30.85	0.11	7.73
66.612	18.55	30.85	0.01	7.63
66.642	18.55	30.85	0.01	7.63
66.672	18.59	30.89	0.01	7.63
66.702	18.59	30.89	0.06	7.68
66.731	18.59	30.89	0.06	7.68
66.761	18.50	30.80	0.06	7.68
66.791	18.50	30.80	0.09	7.71
66.821	18.50	30.80	0.09	7.71
66.851	18.55	30.84	0.09	7.71
66.880	18.55	30.84	-0.03	7.59
66.910	18.55	30.84	-0.03	7.59
66.940	18.56	30.85	-0.03	7.59
66.970	18.56	30.85	0.11	7.73
66.999	18.56	30.85	0.11	7.73
67.029	18.55	30.85	0.11	7.73
67.059	18.55	30.85	0.00	7.62
67.089	18.55	30.85	0.00	7.62
67.118	18.57	30.87	0.00	7.62
67.148	18.57	30.87	0.06	7.68
67.178	18.57	30.87	0.06	7.68
67.208	18.65	30.95	0.06	7.68
67.237	18.65	30.95	0.08	7.70
67.267	18.65	30.95	0.08	7.70
67.297	18.58	30.87	0.08	7.70
67.327	18.58	30.87	-0.02	7.60
67.356	18.58	30.87	-0.02	7.60
67.386	18.50	30.79	-0.02	7.60
67.416	18.50	30.79	0.11	7.74
67.446	18.50	30.79	0.11	7.74
67.476	18.54	30.83	0.11	7.74
67.505	18.54	30.83	-0.00	7.62
67.535	18.54	30.83	-0.00	7.62
67.565	18.55	30.85	-0.00	7.62
67.595	18.55	30.85	0.07	7.69
67.624	18.55	30.85	0.07	7.69
67.654	18.50	30.80	0.07	7.69
67.684	18.50	30.80	0.06	7.69
67.714	18.50	30.80	0.06	7.69
67.743	18.55	30.84	0.06	7.69
67.773	18.55	30.84	-0.02	7.60
67.803	18.55	30.84	-0.02	7.60
67.833	18.53	30.83	-0.02	7.60
67.862	18.53	30.83	0.11	7.73
67.892	18.53	30.83	0.11	7.73
67.922	18.52	30.82	0.11	7.73
67.952	18.52	30.82	-0.01	7.62
67.982	18.52	30.82	-0.01	7.62
68.011	18.55	30.85	-0.01	7.62
68.041	18.55	30.85	0.07	7.69
68.071	18.55	30.85	0.07	7.69
68.101	18.56	30.86	0.07	7.69
68.130	18.56	30.86	0.05	7.68
68.160	18.56	30.86	0.05	7.68
68.190	18.50	30.79	0.05	7.68
68.220	18.50	30.79	-0.02	7.60
68.249	18.50	30.79	-0.02	7.60
68.279	18.47	30.77	-0.02	7.60
68.309	18.47	30.77	0.11	7.74
68.339	18.47	30.77	0.11	7.74
68.368	18.54	30.83	0.11	7.74
68.398	18.54	30.83	-0.01	7.61
68.428	18.54	30.83	-0.01	7.61
68.458	18.53	30.83	-0.01	7.61
68.487	18.53	30.83	0.07	7.69
68.517	18.53	30.83	0.07	7.69
68.547	18.52	30.82	0.07	7.69
68.577	18.52	30.82	0.04	7.67
68.607	18.52	30.82	0.04	7.67
68.636	18.52	30.82	0.04	7.67
68.666	18.52	30.82	-0.01	7.61
68.696	18.52	30.82	-0.01	7.61
68.726	18.51	30.81	-0.01	7.61
68.755	18.51	30.81	0.11	7.74
68.785	18.51	30.81	0.11	7.74
68.815	18.51	30.81	0.11	7.74
68.845	18.51	30.81	-0.01	7.61
68.874	18.51	30.81	-0.01	7.61
68.904	18.60	30.90	-0.01	7.61
68.934	18.60	30.90	0.08	7.70
68.964	18.60	30.90	0.08	7.70
68.993	18.52	30.82	0.08	7.70
69.023	18.52	30.82	0.04	7.66
69.053	18.52	30.82	0.04	7.66
69.083	18.52	30.82	0.04	7.66
69.113	18.52	30.82	-0.01	7.61
69.142	18.52	30.82	-0.01	7.61
69.172	18.45	30.75	-0.01	7.61
69.202	18.45	30.75	0.11	7.73
69.232	18.45	30.75	0.11	7.73
69.261	18.49	30.79	0.11	7.73
69.291	18.49	30.79	-0.02	7.60
69.321	18.49	30.79	-0.02	7.60
69.351	18.50	30.80	-0.02	7.60
69.380	18.50	30.80	0.08	7.70
69.410	18.50	30.80	0.08	7.70
69.440	18.55	30.85	0.08	7.70
69.470	18.55	30.85	0.03	7.65
69.499	18.55	30.85	0.03	7.65
69.529	18.55	30.84	0.03	7.65
69.559	18.55	30.84	0.00	7.62
69.589	18.55	30.84	0.00	7.62
69.618	18.52	30.82	0.00	7.62
69.648	18.52	30.82	0.11	7.74
69.678	18.52	30.82	0.11	7.74
69.708	18.52	30.82	0.11	7.74
69.737	18.52	30.82	-0.02	7.60
69.767	18.52	30.82	-0.02	7.60
69.797	18.51	30.80	-0.02	7.60
69.827	18.51	30.80	0.09	7.71
69.857	18.51	30.80	0.09	7.71
69.886	18.51	30.81	0.09	7.71
69.916	18.51	30.81	0.02	7.64
69.946	18.51	30.81	0.02	7.64
69.976	18.48	30.77	0.02	7.64
70.005	18.48	30.77	0.01	7.63
70.035	18.48	30.77	0.01	7.63
70.065	18.49	30.79	0.01	7.63
70.095	18.49	30.79	0.11	7.73
70.124	18.49	30.79	0.11	7.73
70.154	18.53	30.83	0.11	7.73
70.184	18.53	30.83	-0.02	7.60
70.214	18.53	30.83	-0.02	7.60
70.243	18.56	30.85	-0.02	7.60
70.273	18.56	30.85	0.09	7.71
70.303	18.56	30.85	0.09	7.71
70.333	18.44	30.74	0.09	7.71
70.362	18.44	30.74	0.02	7.64
70.392	18.44	30.74	0.02	7.64
70.422	18.53	30.83	0.02	7.64
70.452	18.53	30.83	0.02	7.64
70.482	18.53	30.83	0.02	7.64
70.511	18.51	30.81	0.02	7.64
70.541	18.51	30.81	0.11	7.73
70.571	18.51	30.81	0.11	7.73
70.601	18.51	30.81	0.11	7.73
70.630	18.51	30.81	-0.02	7.60
70.660	18.51	30.81	-0.02	7.60
70.690	18.51	30.81	-0.02	7.60
70.720	18.51	30.81	0.10	7.72
70.749	18.51	30.81	0.10	7.72
70.779	18.53	30.83	0.10	7.72
70.809	18.53	30.83	0.01	7.64
70.839	18.53	30.83	0.01	7.64
70.868	18.51	30.81	0.01	7.64
70.898	18.51	30.81	0.03	7.65
70.928	18.51	30.81	0.03	7.65
70.958	18.52	30.81	0.03	7.65
70.988	18.52	30.81	0.11	7.73
71.017	18.52	30.81	0.11	7.73
71.047	18.57	30.87	0.11	7.73
71.077	18.57	30.87	-0.03	7.59
71.107	18.57	30.87	-0.03	7.59
71.136	18.52	30.82	-0.03	7.59
71.166	18.52	30.82	0.10	7.72
71.196	18.52	30.82	0.10	7.72
71.226	18.50	30.80	0.10	7.72
71.255	18.50	30.80	0.01	7.63
71.285	18.50	30.80	0.01	7.63
71.315	18.50	30.80	0.01	7.63
71.345	18.50	30.80	0.04	7.66
71.374	18.50	30.80	0.04	7.66
71.404	18.55	30.84	0.04	7.66
71.434	18.55	30.84	0.11	7.73
71.464	18.55	30.84	0.11	7.73
71.494	18.55	30.84	0.11	7.73
71.523	18.55	30.84	-0.02	7.60
71.553	18.55	30.84	-0.02	7.60
71.583	18.52	30.82	-0.02	7.60
71.613	18.52	30.82	0.11	7.73
71.642	18.52	30.82	0.11	7.73
71.672	18.52	30.81	0.11	7.73
71.702	18.52	30.81	0.01	7.63
71.732	18.52	30.81	0.01	7.63
71.761	18.47	30.77	0.01	7.63
71.791	18.47	30.77	0.05	7.68
71.821	18.47	30.77	0.05	7.68
71.851	18.49	30.79	0.05	7.68
71.880	18.49	30.79	0.09	7.72
71.910	18.49	30.79	0.09	7.72
71.940	18.57	30.87	0.09	7.72
71.970	18.57	30.87	-0.03	7.59
71.999	18.57	30.87	-0.03	7.59
72.029	18.51	30.80	-0.03	7.59
72.059	18.51	30.80	0.11	7.73
72.089	18.51	30.80	0.11	7.73
72.119	18.54	30.84	0.11	7.73
72.148	18.54	30.84	0.01	7.63
72.178	18.54	30.84	0.01	7.63
72.208	18.58	30.88	0.01	7.63
72.238	18.58	30.88	0.06	7.68
72.267	18.58	30.88	0.06	7.68
72.297	18.50	30.80	0.06	7.68
72.327	18.50	30.80	0.09	7.71
72.357	18.50	30.80	0.09	7.71
72.386	18.59	30.89	0.09	7.71
72.416	18.59	30.89	-0.02	7.60
72.446	18.59	30.89	-0.02	7.60
72.476	18.61	30.91	-0.02	7.60
72.505	18.61	30.91	0.11	7.73
72.535	18.61	30.91	0.11	7.73
72.565	18.61	30.91	0.11	7.73
72.595	18.61	30.91	0.00	7.63
72.625	18.61	30.91	0.00	7.63
72.654	18.51	30.81	0.00	7.63
72.684	18.51	30.81	0.06	7.68
72.714	18.51	30.81	0.06	7.68
72.744	18.46	30.76	0.06	7.68
72.773	18.46	30.76	0.08	7.70
72.803	18.46	30.76	0.08	7.70
72.833	18.57	30.86	0.08	7.70
72.863	18.57	30.86	-0.02	7.60
72.892	18.57	30.86	-0.02	7.60
72.922	18.57	30.87	-0.02	7.60
72.952	18.57	30.87	0.11	7.73
72.982	18.57	30.87	0.11	7.73
73.011	18.59	30.88	0.11	7.73
73.041	18.59	30.88	-0.01	7.62
73.071	18.59	30.88	-0.01	7.62
73.101	18.59	30.89	-0.01	7.62
73.131	18.59	30.89	0.06	7.69
73.160	18.59	30.89	0.06	7.69
73.190	18.56	30.86	0.06	7.69
73.220	18.56	30.86	0.07	7.69
73.250	18.56	30.86	0.07	7.69
73.279	18.57	30.87	0.07	7.69
73.309	18.57	30.87	-0.02	7.60
73.339	18.57	30.87	-0.02	7.60
73.369	18.53	30.83	-0.02	7.60
73.398	18.53	30.83	0.11	7.73
73.428	18.53	30.83	0.11	7.73
73.458	18.66	30.96	0.11	7.73
73.488	18.66	30.96	-0.01	7.62
73.517	18.66	30.96	-0.01	7.62
73.547	18.59	30.89	-0.01	7.62
73.577	18.59	30.89	0.07	7.69
73.607	18.59	30.89	0.07	7.69
73.636	18.50	30.80	0.07	7.69
73.666	18.50	30.80	0.06	7.68
73.696	18.50	30.80	0.06	7.68
73.726	18.57	30.87	0.06	7.68
73.756	18.57	30.87	-0.02	7.60
73.785	18.57	30.87	-0.02	7.60
73.815	18.64	30.94	-0.02	7.60
73.845	18.64	30.94	0.11	7.74
73.875	18.64	30.94	0.11	7.74
73.904	18.56	30.85	0.11	7.74
73.934	18.56	30.85	-0.01	7.61
73.964	18.56	30.85	-0.01	7.61
73.994	18.59	30.88	-0.01	7.61
74.023	18.59	30.88	0.08	7.70
74.053	18.59	30.88	0.08	7.70
74.083	18.52	30.82	0.08	7.70
74.113	18.52	30.82	0.05	7.67
74.142	18.52	30.82	0.05	7.67
74.172	18.57	30.87	0.05	7.67
74.202	18.57	30.87	-0.02	7.60
74.232	18.57	30.87	-0.02	7.60
74.262	18.67	30.97	-0.02	7.60
74.291	18.67	30.97	0.11	7.74
74.321	18.67	30.97	0.11	7.74
74.351	18.64	30.94	0.11	7.74
74.381	18.64	30.94	-0.01	7.61
74.410	18.64	30.94	-0.01	7.61
74.440	18.61	30.90	-0.01	7.61
74.470	18.61	30.90	0.08	7.70
74.500	18.61	30.90	0.08	7.70
74.529	18.55	30.85	0.08	7.70
74.559	18.55	30.85	0.04	7.66
74.589	18.55	30.85	0.04	7.66
74.619	18.63	30.93	0.04	7.66
74.648	18.63	30.93	-0.01	7.61
74.678	18.63	30.93	-0.01	7.61
74.708	18.56	30.85	-0.01	7.61
74.738	18.56	30.85	0.12	7.74
74.767	18.56	30.85	0.12	7.74
74.797	18.54	30.84	0.12	7.74
74.827	18.54	30.84	-0.02	7.60
74.857	18.54	30.84	-0.02	7.60
74.887	18.61	30.91	-0.02	7.60
74.916	18.61	30.91	0.08	7.70
74.946	18.61	30.91	0.08	7.70
74.976	18.66	30.96	0.08	7.70
75.006	18.66	30.96	0.03	7.65
75.035	18.66	30.96	0.03	7.65
75.065	18.58	30.87	0.03	7.65
75.095	18.58	30.87	-0.00	7.62
75.125	18.58	30.87	-0.00	7.62
75.154	18.61	30.91	-0.00	7.62
75.184	18.61	30.91	0.11	7.74
75.214	18.61	30.91	0.11	7.74
75.244	18.64	30.93	0.11	7.74
75.273	18.64	30.93	-0.02	7.60
75.303	18.64	30.93	-0.02	7.60
75.333	18.56	30.86	-0.02	7.60
75.363	18.56	30.86	0.08	7.70
75.392	18.56	30.86	0.08	7.70
75.422	18.52	30.82	0.08	7.70
75.452	18.52	30.82	0.03	7.65
75.482	18.52	30.82	0.03	7.65
75.512	18.63	30.92	0.03	7.65
75.541	18.63	30.92	0.00	7.62
75.571	18.63	30.92	0.00	7.62
75.601	18.64	30.94	0.00	7.62
75.631	18.64	30.94	0.11	7.74
75.660	18.64	30.94	0.11	7.74
75.690	18.46	30.75	0.11	7.74
75.720	18.46	30.75	-0.02	7.60
75.750	18.46	30.75	-0.02	7.60
75.779	18.60	30.90	-0.02	7.60
75.809	18.60	30.90	0.09	7.71
75.839	18.60	30.90	0.09	7.71
75.869	18.61	30.90	0.09	7.71
75.898	18.61	30.90	0.02	7.64
75.928	18.61	30.90	0.02	7.64
75.958	18.60	30.89	0.02	7.64
75.988	18.60	30.89	0.01	7.63
76.017	18.60	30.89	0.01	7.63
76.047	18.60	30.90	0.01	7.63
76.077	18.60	30.90	0.11	7.74
76.107	18.60	30.90	0.11	7.74
76.136	18.57	30.87	0.11	7.74
76.166	18.57	30.87	-0.02	7.60
76.196	18.57	30.87	-0.02	7.60
76.226	18.55	30.85	-0.02	7.60
76.255	18.55	30.85	0.09	7.71
76.285	18.55	30.85	0.09	7.71
76.315	18.51	30.81	0.09	7.71
76.345	18.51	30.81	0.02	7.64
76.375	18.51	30.81	0.02	7.64
76.404	18.58	30.88	0.02	7.64
76.434	18.58	30.88	0.01	7.64
76.464	18.58	30.88	0.01	7.64
76.494	18.57	30.87	0.01	7.64
76.523	18.57	30.87	0.11	7.74
76.553	18.57	30.87	0.11	7.74
76.583	18.51	30.81	0.11	7.74
76.613	18.51	30.81	-0.02	7.60
76.642	18.51	30.81	-0.02	7.60
76.672	18.61	30.91	-0.02	7.60
76.702	18.61	30.91	0.09	7.71
76.732	18.61	30.91	0.09	7.71
76.761	18.54	30.84	0.09	7.71
76.791	18.54	30.84	0.02	7.64
76.821	18.54	30.84	0.02	7.64
76.851	18.53	30.83	0.02	7.64
76.881	18.53	30.83	0.02	7.64
76.910	18.53	30.83	0.02	7.64
76.940	18.64	30.93	0.02	7.64
76.970	18.64	30.93	0.11	7.73
77.000	18.64	30.93	0.11	7.73
77.029	18.62	30.92	0.11	7.73
77.059	18.62	30.92	-0.03	7.59
77.089	18.62	30.92	-0.03	7.59
77.119	18.58	30.87	-0.03	7.59
77.148	18.58	30.87	0.09	7.72
77.178	18.58	30.87	0.09	7.72
77.208	18.54	30.83	0.09	7.72
77.238	18.54	30.83	0.01	7.64
77.267	18.54	30.83	0.01	7.64
77.297	18.52	30.82	0.01	7.64
77.327	18.52	30.82	0.03	7.65
77.357	18.52	30.82	0.03	7.65
77.386	18.52	30.82	0.03	7.65
77.416	18.52	30.82	0.11	7.73
77.446	18.52	30.82	0.11	7.73
77.476	18.55	30.85	0.11	7.73
77.506	18.55	30.85	-0.03	7.59
77.535	18.55	30.85	-0.03	7.59
77.565	18.59	30.89	-0.03	7.59
77.595	18.59	30.89	0.09	7.72
77.625	18.59	30.89	0.09	7.72
77.654	18.53	30.83	0.09	7.72
77.684	18.53	30.83	0.01	7.63
77.714	18.53	30.83	0.01	7.63
77.744	18.61	30.91	0.01	7.63
77.773	18.61	30.91	0.03	7.65
77.803	18.61	30.91	0.03	7.65
77.833	18.56	30.85	0.03	7.65
77.863	18.56	30.85	0.11	7.73
77.892	18.56	30.85	0.11	7.73
77.922	18.58	30.87	0.11	7.73
77.952	18.58	30.87	-0.02	7.60
77.982	18.58	30.87	-0.02	7.60
78.012	18.45	30.74	-0.02	7.60
78.041	18.45	30.74	0.10	7.72
78.071	18.45	30.74	0.10	7.72
78.101	18.44	30.74	0.10	7.72
78.131	18.44	30.74	0.01	7.63
78.160	18.44	30.74	0.01	7.63
78.190	18.55	30.84	0.01	7.63
78.220	18.55	30.84	0.04	7.67
78.250	18.55	30.84	0.04	7.67
78.279	18.51	30.81	0.04	7.67
78.309	18.51	30.81	0.11	7.73
78.339	18.51	30.81	0.11	7.73
78.369	18.47	30.77	0.11	7.73
78.398	18.47	30.77	-0.02	7.60
78.428	18.47	30.77	-0.02	7.60
78.458	18.52	30.82	-0.02	7.60
78.488	18.52	30.82	0.10	7.73
78.517	18.52	30.82	0.10	7.73
78.547	18.45	30.75	0.10	7.73
78.577	18.45	30.75	0.01	7.64
78.607	18.45	30.75	0.01	7.64
78.637	18.51	30.80	0.01	7.64
78.666	18.51	30.80	0.05	7.67
78.696	18.51	30.80	0.05	7.67
78.726	18.54	30.84	0.05	7.67
78.756	18.54	30.84	0.10	7.73
78.785	18.54	30.84	0.10	7.73
78.815	18.50	30.79	0.10	7.73
78.845	18.50	30.79	-0.03	7.59
78.875	18.50	30.79	-0.03	7.59
78.904	18.50	30.79	-0.03	7.59
78.934	18.50	30.79	0.10	7.72
78.964	18.50	30.79	0.10	7.72
78.994	18.44	30.74	0.10	7.72
79.023	18.44	30.74	0.01	7.63
79.053	18.44	30.74	0.01	7.63
79.083	18.48	30.78	0.01	7.63
79.113	18.48	30.78	0.04	7.67
79.143	18.48	30.78	0.04	7.67
79.172	18.51	30.80	0.04	7.67
79.202	18.51	30.80	0.10	7.72
79.232	18.51	30.80	0.10	7.72
79.262	18.51	30.80	0.10	7.72
79.291	18.51	30.80	-0.03	7.59
79.321	18.51	30.80	-0.03	7.59
79.351	18.53	30.83	-0.03	7.59
79.381	18.53	30.83	0.11	7.73
79.410	18.53	30.83	0.11	7.73
79.440	18.50	30.80	0.11	7.73
79.470	18.50	30.80	0.01	7.63
79.500	18.50	30.80	0.01	7.63
79.529	18.50	30.79	0.01	7.63
79.559	18.50	30.79	0.05	7.67
79.589	18.50	30.79	0.05	7.67
79.619	18.52	30.82	0.05	7.67
79.648	18.52	30.82	0.10	7.72
79.678	18.52	30.82	0.10	7.72
79.708	18.55	30.85	0.10	7.72
79.738	18.55	30.85	-0.03	7.59
79.768	18.55	30.85	-0.03	7.59
79.797	18.44	30.74	-0.03	7.59
79.827	18.44	30.74	0.11	7.73
79.857	18.44	30.74	0.11	7.73
79.887	18.43	30.73	0.11	7.73
79.916	18.43	30.73	0.01	7.63
79.946	18.43	30.73	0.01	7.63
79.976	18.46	30.75	0.01	7.63
80.006	18.46	30.75	0.05	7.67
80.035	18.46	30.75	0.05	7.67
80.065	18.45	30.74	0.05	7.67
80.095	18.45	30.74	0.10	7.72
80.125	18.45	30.74	0.10	7.72
80.154	18.45	30.75	0.10	7.72
80.184	18.45	30.75	-0.03	7.59
80.214	18.45	30.75	-0.03	7.59
80.244	18.41	30.70	-0.03	7.59
80.274	18.41	30.70	0.11	7.73
80.303	18.41	30.70	0.11	7.73
80.333	18.56	30.85	0.11	7.73
80.363	18.56	30.85	0.01	7.63
80.393	18.56	30.85	0.01	7.63
80.422	18.48	30.78	0.01	7.63
80.452	18.48	30.78	0.05	7.67
80.482	18.48	30.78	0.05	7.67
80.512	18.55	30.84	0.05	7.67
80.541	18.55	30.84	0.10	7.72
80.571	18.55	30.84	0.10	7.72
80.601	18.51	30.81	0.10	7.72
80.631	18.51	30.81	-0.02	7.60
80.660	18.51	30.81	-0.02	7.60
80.690	18.53	30.82	-0.02	7.60
80.720	18.53	30.82	0.11	7.73
80.750	18.53	30.82	0.11	7.73
80.779	18.48	30.77	0.11	7.73
80.809	18.48	30.77	0.01	7.63
80.839	18.48	30.77	0.01	7.63
80.869	18.46	30.75	0.01	7.63
80.899	18.46	30.75	0.05	7.68
80.928	18.46	30.75	0.05	7.68
80.958	18.49	30.78	0.05	7.68
80.988	18.49	30.78	0.10	7.72
81.018	18.49	30.78	0.10	7.72
81.047	18.48	30.78	0.10	7.72
81.077	18.48	30.78	-0.03	7.59
81.107	18.48	30.78	-0.03	7.59
81.137	18.45	30.75	-0.03	7.59
81.166	18.45	30.75	0.11	7.73
81.196	18.45	30.75	0.11	7.73
81.226	18.52	30.82	0.11	7.73
81.256	18.52	30.82	0.01	7.63
81.285	18.52	30.82	0.01	7.63
81.315	18.51	30.81	0.01	7.63
81.345	18.51	30.81	0.05	7.67
81.375	18.51	30.81	0.05	7.67
81.405	18.51	30.80	0.05	7.67
81.434	18.51	30.80	0.10	7.72
81.464	18.51	30.80	0.10	7.72
81.494	18.51	30.80	0.10	7.72
81.524	18.51	30.80	-0.03	7.59
81.553	18.51	30.80	-0.03	7.59
81.583	18.40	30.69	-0.03	7.59
81.613	18.40	30.69	0.11	7.73
81.643	18.40	30.69	0.11	7.73
81.672	18.41	30.70	0.11	7.73
81.702	18.41	30.70	0.01	7.63
81.732	18.41	30.70	0.01	7.63
81.762	18.47	30.77	0.01	7.63
81.791	18.47	30.77	0.05	7.67
81.821	18.47	30.77	0.05	7.67
81.851	18.47	30.77	0.05	7.67
81.881	18.47	30.77	0.09	7.72
81.911	18.47	30.77	0.09	7.72
81.940	18.50	30.80	0.09	7.72
81.970	18.50	30.80	-0.03	7.59
82.000	18.50	30.80	-0.03	7.59
82.030	18.44	30.74	-0.03	7.59
82.059	18.44	30.74	0.11	7.73
82.089	18.44	30.74	0.11	7.73
82.119	18.45	30.75	0.11	7.73
82.149	18.45	30.75	0.01	7.63
82.178	18.45	30.75	0.01	7.63
82.208	18.41	30.71	0.01	7.63
82.238	18.41	30.71	0.05	7.67
82.268	18.41	30.71	0.05	7.67
82.297	18.44	30.74	0.05	7.67
82.327	18.44	30.74	0.10	7.72
82.357	18.44	30.74	0.10	7.72
82.387	18.48	30.77	0.10	7.72
82.416	18.48	30.77	-0.03	7.59
82.446	18.48	30.77	-0.03	7.59
82.476	18.40	30.70	-0.03	7.59
82.506	18.40	30.70	0.11	7.73
82.536	18.40	30.70	0.11	7.73
82.565	18.41	30.70	0.11	7.73
82.595	18.41	30.70	0.01	7.63
82.625	18.41	30.70	0.01	7.63
82.655	18.43	30.73	0.01	7.63
82.684	18.43	30.73	0.05	7.68
82.714	18.43	30.73	0.05	7.68
82.744	18.45	30.75	0.05	7.68
82.774	18.45	30.75	0.10	7.72
82.803	18.45	30.75	0.10	7.72
82.833	18.39	30.69	0.10	7.72
82.863	18.39	30.69	-0.03	7.59
82.893	18.39	30.69	-0.03	7.59
82.922	18.42	30.72	-0.03	7.59
82.952	18.42	30.72	0.11	7.73
82.982	18.42	30.72	0.11	7.73
83.012	18.41	30.70	0.11	7.73
83.042	18.41	30.70	0.01	7.63
83.071	18.41	30.70	0.01	7.63
83.101	18.42	30.72	0.01	7.63
83.131	18.42	30.72	0.06	7.68
83.161	18.42	30.72	0.06	7.68
83.190	18.48	30.77	0.06	7.68
83.220	18.48	30.77	0.10	7.72
83.250	18.48	30.77	0.10	7.72
83.280	18.46	30.76	0.10	7.72
83.309	18.46	30.76	-0.02	7.60
83.339	18.46	30.76	-0.02	7.60
83.369	18.42	30.71	-0.02	7.60
83.399	18.42	30.71	0.11	7.73
83.428	18.42	30.71	0.11	7.73
83.458	18.45	30.74	0.11	7.73
83.488	18.45	30.74	0.01	7.63
83.518	18.45	30.74	0.01	7.63
83.548	18.48	30.78	0.01	7.63
83.577	18.48	30.78	0.05	7.67
83.607	18.48	30.78	0.05	7.67
83.637	18.50	30.79	0.05	7.67
83.667	18.50	30.79	0.10	7.72
83.696	18.50	30.79	0.10	7.72
83.726	18.39	30.68	0.10	7.72
83.756	18.39	30.68	-0.03	7.59
83.786	18.39	30.68	-0.03	7.59
83.815	18.45	30.75	-0.03	7.59
83.845	18.45	30.75	0.11	7.73
83.875	18.45	30.75	0.11	7.73
83.905	18.43	30.73	0.11	7.73
83.934	18.43	30.73	0.01	7.63
83.964	18.43	30.73	0.01	7.63
83.994	18.43	30.73	0.01	7.63
84.024	18.43	30.73	0.05	7.68
84.054	18.43	30.73	0.05	7.68
84.083	18.45	30.75	0.05	7.68
84.113	18.45	30.75	0.10	7.72
84.143	18.45	30.75	0.10	7.72
84.173	18.45	30.75	0.10	7.72
84.202	18.45	30.75	-0.03	7.59
84.232	18.45	30.75	-0.03	7.59
84.262	18.38	30.67	-0.03	7.59
84.292	18.38	30.67	0.11	7.73
84.321	18.38	30.67	0.11	7.73
84.351	18.44	30.73	0.11	7.73
84.381	18.44	30.73	0.01	7.63
84.411	18.44	30.73	0.01	7.63
84.440	18.46	30.76	0.01	7.63
84.470	18.46	30.76	0.05	7.67
84.500	18.46	30.76	0.05	7.67
84.530	18.53	30.83	0.05	7.67
84.559	18.53	30.83	0.10	7.72
84.589	18.53	30.83	0.10	7.72
84.619	18.35	30.65	0.10	7.72
84.649	18.35	30.65	-0.03	7.59
84.679	18.35	30.65	-0.03	7.59
84.708	18.46	30.76	-0.03	7.59
84.738	18.46	30.76	0.10	7.73
84.768	18.46	30.76	0.10	7.73
84.798	18.41	30.70	0.10	7.73
84.827	18.41	30.70	0.01	7.63
84.857	18.41	30.70	0.01	7.63
84.887	14.21	26.50	0.01	7.63
84.917	14.21	26.50	0.04	7.66
84.946	14.21	26.50	0.04	7.66
84.976	-11.42	0.87	0.04	7.66
85.006	-11.42	0.87	0.10	7.72
85.036	-11.42	0.87	0.10	7.72
85.065	-0.98	11.32	0.10	7.72
85.095	-0.98	11.32	-0.03	7.59
85.125	-0.98	11.32	-0.03	7.59
85.155	5.60	17.90	-0.03	7.59
85.185	5.60	17.90	0.10	7.72
85.214	5.60	17.90	0.10	7.72
85.244	0.62	12.92	0.10	7.72
85.274	0.62	12.92	0.00	7.63
85.304	0.62	12.92	0.00	7.63
85.333	-2.24	10.06	0.00	7.63
85.363	-2.24	10.06	0.05	7.67
85.393	-2.24	10.06	0.05	7.67
85.423	1.29	13.59	0.05	7.67
85.453	1.29	13.59	0.10	7.72
85.482	1.29	13.59	0.10	7.72
85.512	1.38	13.68	0.10	7.72
85.542	1.38	13.68	-0.03	7.59
85.572	1.38	13.68	-0.03	7.59
85.601	-0.23	12.07	-0.03	7.59
85.631	-0.23	12.07	0.10	7.72
85.661	-0.23	12.07	0.10	7.72
85.691	0.18	12.48	0.10	7.72
85.720	0.18	12.48	0.01	7.63
85.750	0.18	12.48	0.01	7.63
85.780	0.89	13.19	0.01	7.63
85.810	0.89	13.19	0.04	7.66
85.840	0.89	13.19	0.04	7.66
85.869	0.46	12.75	0.04	7.66
85.899	0.46	12.75	0.11	7.73
85.929	0.46	12.75	0.11	7.73
85.959	0.32	12.61	0.11	7.73
85.988	0.32	12.61	-0.03	7.59
86.018	0.32	12.61	-0.03	7.59
86.048	0.59	12.88	-0.03	7.59
86.078	0.59	12.88	0.10	7.72
86.107	0.59	12.88	0.10	7.72
86.137	0.53	12.82	0.10	7.72
86.167	0.53	12.82	0.01	7.63
86.197	0.53	12.82	0.01	7.63
86.227	0.41	12.71	0.01	7.63
86.256	0.41	12.71	0.03	7.65
86.286	0.41	12.71	0.03	7.65
86.316	0.51	12.80	0.03	7.65
86.346	0.51	12.80	0.11	7.73
86.375	0.51	12.80	0.11	7.73
86.405	0.54	12.84	0.11	7.73
86.435	0.54	12.84	-0.03	7.59
86.465	0.54	12.84	-0.03	7.59
86.495	0.47	12.77	-0.03	7.59
86.524	0.47	12.77	0.10	7.72
86.554	0.47	12.77	0.10	7.72
86.584	0.50	12.79	0.10	7.72
86.614	0.50	12.79	0.01	7.63
86.643	0.50	12.79	0.01	7.63
86.673	0.55	12.84	0.01	7.63
86.703	0.55	12.84	0.03	7.65
86.733	0.55	12.84	0.03	7.65
86.762	0.52	12.81	0.03	7.65
86.792	0.52	12.81	0.11	7.73
86.822	0.52	12.81	0.11	7.73
86.852	0.51	12.81	0.11	7.73
86.882	0.51	12.81	-0.03	7.59
86.911	0.51	12.81	-0.03	7.59
86.941	0.54	12.83	-0.03	7.59
86.971	0.54	12.83	0.09	7.71
87.001	0.54	12.83	0.09	7.71
87.030	0.52	12.82	0.09	7.71
87.060	0.52	12.82	0.01	7.64
87.090	0.52	12.82	0.01	7.64
87.120	0.51	12.81	0.01	7.64
87.150	0.51	12.81	0.03	7.65
87.179	0.51	12.81	0.03	7.65
87.209	0.53	12.83	0.03	7.65
87.239	0.53	12.83	0.11	7.73
87.269	0.53	12.83	0.11	7.73
87.298	0.52	12.82	0.11	7.73
87.328	0.52	12.82	-0.03	7.59
87.358	0.52	12.82	-0.03	7.59
87.388	0.52	12.81	-0.03	7.59
87.417	0.52	12.81	0.09	7.72
87.447	0.52	12.81	0.09	7.72
87.477	0.53	12.83	0.09	7.72
87.507	0.53	12.83	0.02	7.64
87.537	0.53	12.83	0.02	7.64
87.566	0.53	12.82	0.02	7.64
87.596	0.53	12.82	0.02	7.64
87.626	0.53	12.82	0.02	7.64
87.656	0.53	12.82	0.02	7.64
87.685	0.53	12.82	0.11	7.73
87.715	0.53	12.82	0.11	7.73
87.745	0.53	12.82	0.11	7.73
87.775	0.53	12.82	-0.03	7.59
87.804	0.53	12.82	-0.03	7.59
87.834	0.53	12.82	-0.03	7.59
87.864	0.53	12.82	0.09	7.72
87.894	0.53	12.82	0.09	7.72
87.924	0.52	12.82	0.09	7.72
87.953	0.52	12.82	0.02	7.64
87.983	0.52	12.82	0.02	7.64
88.013	0.53	12.83	0.02	7.64
88.043	0.53	12.83	0.01	7.63
88.072	0.53	12.83	0.01	7.63
88.102	0.53	12.83	0.01	7.63
88.132	0.53	12.83	0.11	7.73
88.162	0.53	12.83	0.11	7.73
88.192	0.53	12.83	0.11	7.73
88.221	0.53	12.83	-0.03	7.59
88.251	0.53	12.83	-0.03	7.59
88.281	0.54	12.83	-0.03	7.59
88.311	0.54	12.83	0.09	7.71
88.340	0.54	12.83	0.09	7.71
88.370	0.54	12.84	0.09	7.71
88.400	0.54	12.84	0.02	7.64
88.430	0.54	12.84	0.02	7.64
88.459	0.56	12.86	0.02	7.64
88.489	0.56	12.86	0.01	7.63
88.519	0.56	12.86	0.01	7.63
88.549	0.58	12.87	0.01	7.63
88.579	0.58	12.87	0.11	7.73
88.608	0.58	12.87	0.11	7.73
88.638	0.59	12.89	0.11	7.73
88.668	0.59	12.89	-0.02	7.60
88.698	0.59	12.89	-0.02	7.60
88.727	0.59	12.89	-0.02	7.60
88.757	0.59	12.89	0.09	7.71
88.787	0.59	12.89	0.09	7.71
88.817	0.60	12.90	0.09	7.71
88.846	0.60	12.90	0.03	7.65
88.876	0.60	12.90	0.03	7.65
88.906	0.60	12.89	0.03	7.65
88.936	0.60	12.89	0.00	7.63
88.966	0.60	12.89	0.00	7.63
88.995	0.60	12.89	0.00	7.63
89.025	0.60	12.89	0.12	7.74
89.055	0.60	12.89	0.12	7.74
89.085	0.60	12.90	0.12	7.74
89.114	0.60	12.90	-0.02	7.60
89.144	0.60	12.90	-0.02	7.60
89.174	0.60	12.90	-0.02	7.60
89.204	0.60	12.90	0.08	7.70
89.234	0.60	12.90	0.08	7.70
89.263	0.61	12.90	0.08	7.70
89.293	0.61	12.90	0.03	7.65
89.323	0.61	12.90	0.03	7.65
89.353	0.61	12.90	0.03	7.65
89.382	0.61	12.90	-0.01	7.62
89.412	0.61	12.90	-0.01	7.62
89.442	0.60	12.89	-0.01	7.62
89.472	0.60	12.89	0.11	7.74
89.501	0.60	12.89	0.11	7.74
89.531	0.40	12.69	0.11	7.74
89.561	0.40	12.69	-0.02	7.60
89.591	0.40	12.69	-0.02	7.60
89.621	-5.97	6.33	-0.02	7.60
89.650	-5.97	6.33	0.08	7.70
