Tempo(s)    P0(KPa) P0+Coluna(KPa)  P1(KPa) P1+Coluna(KPa)  Vazao(L/min)    Pulsos
0.000	3.34	2.67	1.71	7.84	0.000	0
0.032	3.21	2.54	1.71	7.83	0.000	0
0.064	2.87	2.20	1.71	7.83	0.000	0
0.096	2.82	2.15	1.71	7.83	0.000	0
0.128	2.53	1.86	1.70	7.82	0.000	0
0.160	2.40	1.73	1.73	7.85	0.000	0
0.192	2.33	1.66	1.71	7.84	0.000	0
0.224	2.19	1.52	1.71	7.83	0.000	0
0.256	2.06	1.39	1.71	7.83	0.000	0
0.288	2.01	1.34	1.70	7.82	0.000	0
0.320	1.96	1.29	1.73	7.85	0.000	0
0.352	1.90	1.23	1.71	7.83	0.000	0
0.384	1.85	1.18	1.71	7.83	0.000	0
0.416	1.80	1.13	1.71	7.83	0.000	0
0.448	1.76	1.09	1.70	7.82	0.000	0
0.480	1.73	1.06	1.73	7.85	0.000	0
0.512	1.71	1.04	1.71	7.83	0.000	0
0.544	1.68	1.01	1.71	7.83	0.000	0
0.576	1.66	0.99	1.71	7.83	0.000	0
0.608	1.67	1.00	1.69	7.82	0.000	0
0.640	1.62	0.95	1.73	7.85	0.000	0
0.672	1.61	0.94	1.71	7.83	0.000	0
0.704	1.60	0.93	1.70	7.83	0.000	0
0.736	1.60	0.93	1.71	7.83	0.000	0
0.768	1.60	0.93	1.69	7.81	0.000	0
0.800	1.55	0.88	1.73	7.85	0.000	0
0.832	1.50	0.83	1.71	7.83	0.000	0
0.864	1.51	0.84	1.71	7.83	0.000	0
0.896	1.49	0.82	1.71	7.83	0.000	0
0.928	1.50	0.83	1.69	7.82	0.000	0
0.960	1.50	0.83	1.72	7.85	0.000	0
0.992	1.53	0.85	1.71	7.83	0.000	0
1.024	1.52	0.85	1.71	7.83	0.000	0
1.056	1.55	0.88	1.71	7.83	0.000	0
1.088	1.59	0.92	1.69	7.81	0.000	0
1.120	1.65	0.98	1.73	7.85	0.000	0
1.152	1.69	1.02	1.71	7.83	0.000	0
1.184	1.75	1.08	1.71	7.83	0.000	0
1.216	1.83	1.16	1.71	7.83	0.000	0
1.248	1.91	1.24	1.70	7.82	0.000	0
1.280	2.05	1.38	1.73	7.85	0.000	0
1.312	2.30	1.63	1.71	7.83	0.000	0
1.344	3.67	3.00	1.71	7.83	0.000	0
1.376	3.23	2.56	1.71	7.83	0.000	0
1.408	3.42	2.75	1.70	7.82	0.000	0
1.440	2.45	1.78	1.73	7.85	0.000	0
1.472	2.49	1.82	1.71	7.83	0.000	0
1.504	2.53	1.86	1.71	7.83	0.000	0
1.536	2.55	1.88	1.71	7.83	0.000	0
1.568	2.56	1.89	1.69	7.81	0.000	0
1.600	2.54	1.87	1.73	7.85	0.000	0
1.632	2.62	1.95	1.71	7.83	0.000	0
1.664	2.69	2.02	1.71	7.83	0.000	0
1.696	2.68	2.01	1.71	7.83	0.000	0
1.728	2.69	2.02	1.69	7.82	0.000	0
1.760	2.75	2.08	1.73	7.85	0.000	0
1.792	2.92	2.25	1.71	7.83	0.000	0
1.824	3.04	2.37	1.71	7.83	0.000	0
1.856	2.84	2.17	1.71	7.83	0.000	0
1.888	2.81	2.14	1.70	7.82	0.000	0
1.920	2.39	1.72	1.73	7.85	0.000	0
1.952	2.37	1.70	1.71	7.83	0.000	0
1.984	2.42	1.75	1.71	7.83	0.000	0
2.016	2.43	1.76	1.71	7.83	0.000	0
2.048	2.41	1.74	1.69	7.82	0.000	0
2.080	2.38	1.71	1.73	7.85	0.000	0
2.112	2.35	1.68	1.71	7.83	0.000	0
2.144	2.37	1.70	1.70	7.83	0.000	0
2.176	2.35	1.68	1.70	7.83	0.000	0
2.208	2.36	1.69	1.69	7.81	0.000	0
2.240	2.35	1.68	1.73	7.85	0.000	0
2.272	2.31	1.64	1.71	7.83	0.000	0
2.304	3.93	3.26	1.72	7.84	0.000	0
2.336	13.24	12.57	1.71	7.84	0.000	0
2.368	20.54	19.87	1.70	7.82	0.000	0
2.400	20.46	19.79	1.74	7.86	0.000	0
2.432	19.01	18.34	1.72	7.84	0.000	0
2.464	18.83	18.16	1.71	7.84	0.000	0
2.496	18.95	18.28	1.72	7.84	0.000	0
2.528	18.90	18.23	1.70	7.82	0.000	0
2.560	18.89	18.22	1.74	7.86	0.000	0
2.592	19.08	18.41	1.72	7.84	0.656	143
2.624	19.21	18.54	1.72	7.84	0.656	143
2.656	19.03	18.36	1.72	7.84	0.656	143
2.688	18.87	18.20	1.70	7.82	0.656	143
2.720	18.70	18.03	1.73	7.85	0.656	143
2.752	18.65	17.98	1.72	7.84	0.656	143
2.784	18.63	17.96	1.71	7.83	0.656	143
2.816	18.64	17.97	1.71	7.83	0.656	143
2.848	18.59	17.92	1.70	7.82	0.656	143
2.880	18.57	17.90	1.73	7.85	0.656	143
2.912	18.48	17.81	1.72	7.84	0.656	143
2.944	18.53	17.86	1.71	7.84	0.656	143
2.976	18.55	17.88	1.72	7.84	0.656	143
3.008	18.56	17.89	1.70	7.82	0.656	143
3.040	18.53	17.86	1.74	7.86	0.656	143
3.072	18.44	17.77	1.72	7.84	1.248	272
3.104	18.41	17.74	1.71	7.83	1.248	272
3.136	18.34	17.67	1.72	7.84	1.248	272
3.168	18.33	17.65	1.70	7.82	1.248	272
3.200	18.30	17.63	1.73	7.85	1.248	272
3.232	18.21	17.54	1.72	7.84	1.248	272
3.264	18.16	17.49	1.71	7.83	1.248	272
3.296	18.21	17.54	1.71	7.84	1.248	272
3.328	18.23	17.56	1.70	7.82	1.248	272
3.360	18.08	17.41	1.73	7.85	1.248	272
3.392	17.96	17.29	1.72	7.84	1.248	272
3.424	18.16	17.49	1.71	7.83	1.248	272
3.456	18.28	17.60	1.72	7.84	1.248	272
3.488	18.16	17.49	1.69	7.82	1.248	272
3.520	18.15	17.48	1.73	7.85	1.248	272
3.552	18.23	17.56	1.72	7.84	1.248	272
3.584	18.21	17.54	1.71	7.83	1.248	272
3.616	18.22	17.55	1.72	7.84	1.248	272
3.648	18.21	17.54	1.70	7.82	1.248	272
3.680	18.21	17.54	1.73	7.85	1.248	272
3.712	18.23	17.56	1.72	7.84	1.248	272
3.744	18.23	17.56	1.71	7.83	1.248	272
3.776	18.28	17.61	1.72	7.84	1.248	272
3.808	18.16	17.49	1.70	7.82	1.248	272
3.840	18.15	17.48	1.73	7.85	1.248	272
3.872	18.26	17.59	1.72	7.85	1.248	272
3.904	18.25	17.58	1.71	7.83	1.248	272
3.936	18.21	17.54	1.71	7.84	1.248	272
3.968	18.31	17.64	1.70	7.82	1.248	272
4.000	18.44	17.77	1.73	7.85	1.252	273
4.032	18.44	17.77	1.72	7.84	1.252	273
4.064	18.45	17.78	1.71	7.83	1.252	273
4.096	18.50	17.83	1.71	7.84	1.252	273
4.128	18.61	17.94	1.70	7.82	1.252	273
4.160	18.49	17.82	1.73	7.85	1.252	273
4.192	18.33	17.66	1.72	7.84	1.252	273
4.224	18.31	17.64	1.71	7.83	1.252	273
4.256	18.39	17.72	1.72	7.84	1.252	273
4.288	18.34	17.67	1.69	7.82	1.252	273
4.320	18.38	17.71	1.73	7.85	1.252	273
4.352	18.56	17.89	1.72	7.84	1.252	273
4.384	18.54	17.87	1.71	7.84	1.252	273
4.416	18.50	17.83	1.72	7.84	1.252	273
4.448	18.53	17.86	1.69	7.82	1.229	268
4.480	18.58	17.91	1.73	7.85	1.229	268
4.512	18.55	17.88	1.72	7.84	1.229	268
4.544	18.60	17.93	1.71	7.84	1.229	268
4.576	18.60	17.93	1.72	7.84	1.229	268
4.608	18.58	17.91	1.70	7.83	1.229	268
4.640	18.53	17.86	1.74	7.86	1.229	268
4.672	18.46	17.79	1.72	7.85	1.229	268
4.704	18.51	17.84	1.71	7.83	1.229	268
4.736	18.47	17.80	1.72	7.84	1.229	268
4.768	18.47	17.80	1.70	7.82	1.229	268
4.800	18.58	17.91	1.74	7.86	1.229	268
4.832	18.67	18.00	1.72	7.85	1.229	268
4.864	18.58	17.90	1.71	7.84	1.229	268
4.896	18.53	17.86	1.72	7.84	1.229	268
4.928	18.52	17.85	1.70	7.82	1.248	272
4.960	18.49	17.82	1.73	7.85	1.248	272
4.992	18.47	17.80	1.72	7.85	1.248	272
5.024	18.49	17.82	1.71	7.84	1.248	272
5.056	18.58	17.91	1.71	7.83	1.248	272
5.088	18.54	17.87	1.70	7.82	1.248	272
5.120	18.56	17.89	1.73	7.85	1.248	272
5.152	18.50	17.83	1.72	7.84	1.248	272
5.184	18.45	17.78	1.71	7.84	1.248	272
5.216	18.46	17.79	1.72	7.84	1.248	272
5.248	18.50	17.83	1.70	7.82	1.248	272
5.280	18.57	17.90	1.74	7.86	1.248	272
5.312	18.58	17.90	1.72	7.85	1.248	272
5.344	18.55	17.88	1.71	7.83	1.248	272
5.376	18.55	17.88	1.71	7.84	1.248	272
5.408	18.58	17.91	1.70	7.82	1.248	272
5.440	18.63	17.96	1.73	7.85	1.248	272
5.472	18.62	17.95	1.72	7.84	1.248	272
5.504	18.57	17.90	1.72	7.84	1.248	272
5.536	18.64	17.97	1.71	7.84	1.248	272
5.568	18.69	18.02	1.70	7.82	1.248	272
5.600	18.68	18.01	1.74	7.86	1.248	272
5.632	18.67	18.00	1.72	7.84	1.248	272
5.664	18.66	17.99	1.71	7.83	1.248	272
5.696	18.64	17.97	1.71	7.84	1.248	272
5.728	18.65	17.98	1.70	7.82	1.248	272
5.760	18.76	18.09	1.74	7.86	1.248	272
5.792	18.80	18.13	1.72	7.84	1.248	272
5.824	18.71	18.04	1.71	7.83	1.248	272
5.856	18.71	18.04	1.72	7.84	1.261	275
5.888	18.78	18.11	1.70	7.82	1.261	275
5.920	18.79	18.12	1.74	7.86	1.261	275
5.952	18.84	18.17	1.71	7.84	1.261	275
5.984	18.89	18.22	1.72	7.84	1.261	275
6.016	18.82	18.15	1.71	7.84	1.261	275
6.048	18.80	18.13	1.70	7.82	1.261	275
6.080	18.80	18.13	1.74	7.86	1.261	275
6.112	18.84	18.17	1.72	7.84	1.261	275
6.144	18.79	18.12	1.71	7.84	1.261	275
6.176	18.86	18.19	1.72	7.84	1.261	275
6.208	18.95	18.28	1.71	7.83	1.261	275
6.240	18.95	18.28	1.74	7.86	1.261	275
6.272	18.97	18.30	1.72	7.84	1.261	275
6.304	18.93	18.26	1.72	7.84	1.261	275
6.336	18.99	18.32	1.72	7.84	1.266	276
6.368	19.05	18.38	1.71	7.83	1.266	276
6.400	19.07	18.40	1.74	7.87	1.266	276
6.432	19.11	18.44	1.72	7.84	1.266	276
6.464	19.19	18.52	1.71	7.84	1.266	276
6.496	19.12	18.45	1.72	7.84	1.266	276
6.528	19.05	18.38	1.70	7.83	1.266	276
6.560	19.03	18.36	1.74	7.86	1.266	276
6.592	19.09	18.42	1.72	7.84	1.266	276
6.624	19.13	18.46	1.72	7.84	1.266	276
6.656	19.20	18.53	1.71	7.84	1.266	276
6.688	19.30	18.63	1.70	7.82	1.266	276
6.720	19.33	18.66	1.74	7.86	1.266	276
6.752	19.23	18.56	1.72	7.84	1.266	276
6.784	19.26	18.59	1.72	7.84	1.266	276
6.816	19.35	18.68	1.72	7.84	1.266	276
6.848	19.23	18.56	1.70	7.83	1.266	276
6.880	19.28	18.60	1.74	7.86	1.266	276
6.912	19.30	18.63	1.71	7.83	1.266	276
6.944	19.33	18.66	1.72	7.84	1.266	276
6.976	19.40	18.73	1.72	7.84	1.266	276
7.008	19.36	18.69	1.70	7.83	1.266	276
7.040	19.38	18.71	1.74	7.87	1.266	276
7.072	19.42	18.75	1.72	7.84	1.266	276
7.104	19.35	18.68	1.72	7.84	1.266	276
7.136	19.46	18.79	1.72	7.84	1.266	276
7.168	19.57	18.90	1.71	7.83	1.266	276
7.200	19.59	18.92	1.74	7.87	1.266	276
7.232	19.61	18.94	1.71	7.83	1.266	276
7.264	19.62	18.95	1.72	7.84	1.266	276
7.296	19.65	18.98	1.72	7.84	1.266	276
7.328	19.63	18.96	1.71	7.83	1.266	276
7.360	19.64	18.97	1.74	7.86	1.266	276
7.392	19.61	18.94	1.71	7.83	1.266	276
7.424	19.62	18.95	1.72	7.84	1.266	276
7.456	19.65	18.98	1.72	7.84	1.266	276
7.488	19.70	19.03	1.71	7.83	1.266	276
7.520	19.69	19.02	1.74	7.86	1.266	276
7.552	19.70	19.03	1.71	7.83	1.266	276
7.584	19.64	18.97	1.72	7.84	1.266	276
7.616	19.50	18.83	1.72	7.84	1.266	276
7.648	19.47	18.80	1.71	7.83	1.266	276
7.680	19.37	18.70	1.74	7.86	1.266	276
7.712	19.38	18.70	1.71	7.83	1.266	276
7.744	19.38	18.71	1.72	7.84	1.266	276
7.776	19.29	18.62	1.72	7.84	1.266	276
7.808	19.26	18.59	1.71	7.83	1.266	276
7.840	19.23	18.56	1.74	7.86	1.266	276
7.872	19.17	18.50	1.71	7.83	1.266	276
7.904	19.10	18.43	1.72	7.84	1.266	276
7.936	19.05	18.38	1.71	7.84	1.266	276
7.968	18.99	18.32	1.71	7.84	1.266	276
8.000	19.00	18.33	1.74	7.86	1.266	276
8.032	18.95	18.28	1.71	7.83	1.266	276
8.064	18.94	18.27	1.72	7.85	1.266	276
8.096	18.95	18.28	1.72	7.84	1.266	276
8.128	18.92	18.25	1.71	7.84	1.266	276
8.160	18.92	18.25	1.74	7.86	1.266	276
8.192	18.88	18.21	1.71	7.83	1.266	276
8.224	18.90	18.23	1.72	7.84	1.266	276
8.256	18.86	18.19	1.71	7.83	1.266	276
8.288	18.84	18.17	1.71	7.83	1.266	276
8.320	18.90	18.23	1.74	7.86	1.266	276
8.352	18.87	18.20	1.71	7.83	1.266	276
8.384	18.85	18.18	1.72	7.84	1.266	276
8.416	18.87	18.20	1.71	7.84	1.266	276
8.448	18.85	18.18	1.71	7.83	1.266	276
8.480	18.81	18.14	1.74	7.86	1.266	276
8.512	18.73	18.06	1.71	7.83	1.266	276
8.544	18.77	18.10	1.72	7.84	1.266	276
8.576	18.79	18.12	1.72	7.84	1.266	276
8.608	18.81	18.14	1.71	7.84	1.266	276
8.640	18.74	18.07	1.74	7.86	1.266	276
8.672	18.76	18.09	1.71	7.83	1.261	275
8.704	18.75	18.08	1.72	7.85	1.261	275
8.736	18.73	18.06	1.71	7.83	1.261	275
8.768	18.80	18.13	1.72	7.84	1.261	275
8.800	18.75	18.08	1.74	7.86	1.261	275
8.832	18.74	18.07	1.70	7.82	1.261	275
8.864	18.66	17.99	1.72	7.85	1.261	275
8.896	18.65	17.98	1.71	7.83	1.261	275
8.928	18.71	18.04	1.72	7.84	1.261	275
8.960	18.72	18.05	1.74	7.86	1.261	275
8.992	18.68	18.01	1.70	7.83	1.261	275
9.024	18.70	18.03	1.72	7.84	1.261	275
9.056	18.75	18.08	1.71	7.83	1.261	275
9.088	18.76	18.09	1.72	7.84	1.261	275
9.120	18.73	18.05	1.74	7.86	1.261	275
9.152	18.77	18.10	1.70	7.83	1.266	276
9.184	18.74	18.07	1.72	7.85	1.266	276
9.216	18.74	18.07	1.71	7.83	1.266	276
9.248	18.74	18.07	1.72	7.84	1.266	276
9.280	18.71	18.04	1.74	7.86	1.266	276
9.312	18.70	18.03	1.71	7.83	1.266	276
9.344	18.73	18.06	1.72	7.84	1.266	276
9.376	18.71	18.04	1.71	7.83	1.266	276
9.408	18.71	18.04	1.71	7.84	1.266	276
9.440	18.68	18.00	1.73	7.85	1.266	276
9.472	18.69	18.02	1.71	7.83	1.266	276
9.504	18.73	18.06	1.73	7.85	1.266	276
9.536	18.70	18.03	1.71	7.83	1.266	276
9.568	18.72	18.05	1.73	7.85	1.266	276
9.600	18.71	18.04	1.74	7.86	1.266	276
9.632	18.74	18.07	1.70	7.83	1.266	276
9.664	18.77	18.10	1.73	7.85	1.266	276
9.696	18.74	18.07	1.70	7.82	1.266	276
9.728	18.72	18.05	1.72	7.84	1.266	276
9.760	18.80	18.13	1.74	7.86	1.266	276
9.792	18.76	18.09	1.71	7.83	1.266	276
9.824	18.74	18.07	1.72	7.85	1.266	276
9.856	18.75	18.08	1.70	7.83	1.266	276
9.888	18.75	18.08	1.72	7.85	1.266	276
9.920	18.74	18.07	1.73	7.85	1.266	276
9.952	18.74	18.07	1.71	7.83	1.266	276
9.984	18.80	18.13	1.72	7.85	1.266	276
10.016	18.77	18.10	1.70	7.82	1.266	276
10.048	18.77	18.10	1.72	7.85	1.266	276
10.080	18.78	18.11	1.73	7.85	1.266	276
10.112	18.80	18.13	1.71	7.83	1.266	276
10.144	18.83	18.16	1.72	7.84	1.266	276
10.176	18.77	18.10	1.70	7.82	1.266	276
10.208	18.79	18.12	1.73	7.85	1.266	276
10.240	18.82	18.15	1.73	7.85	1.266	276
10.272	18.76	18.09	1.71	7.83	1.266	276
10.304	18.80	18.13	1.72	7.84	1.266	276
10.336	18.75	18.08	1.70	7.82	1.266	276
10.368	18.76	18.09	1.73	7.85	1.266	276
10.400	18.77	18.10	1.73	7.85	1.266	276
10.432	18.81	18.14	1.71	7.84	1.266	276
10.464	18.85	18.18	1.72	7.84	1.266	276
10.496	18.83	18.15	1.70	7.82	1.266	276
10.528	18.83	18.16	1.74	7.86	1.266	276
10.560	18.85	18.18	1.72	7.84	1.271	277
10.592	18.85	18.18	1.72	7.84	1.271	277
10.624	18.92	18.25	1.72	7.84	1.271	277
10.656	18.89	18.22	1.70	7.82	1.271	277
10.688	18.95	18.28	1.73	7.85	1.271	277
10.720	18.93	18.26	1.72	7.84	1.271	277
10.752	18.88	18.21	1.72	7.84	1.271	277
10.784	18.90	18.23	1.72	7.84	1.271	277
10.816	18.84	18.17	1.70	7.82	1.271	277
10.848	18.85	18.18	1.74	7.86	1.271	277
10.880	18.85	18.18	1.71	7.83	1.271	277
10.912	18.87	18.20	1.72	7.84	1.271	277
10.944	18.93	18.25	1.72	7.84	1.271	277
10.976	18.92	18.25	1.71	7.83	1.271	277
11.008	18.93	18.26	1.74	7.86	1.266	276
11.040	18.90	18.23	1.71	7.83	1.266	276
11.072	18.95	18.28	1.72	7.84	1.266	276
11.104	18.95	18.28	1.71	7.83	1.266	276
11.136	19.02	18.35	1.71	7.83	1.266	276
11.168	19.02	18.35	1.74	7.86	1.266	276
11.200	18.97	18.30	1.71	7.83	1.266	276
11.232	18.97	18.30	1.72	7.84	1.266	276
11.264	19.02	18.35	1.72	7.84	1.266	276
11.296	19.05	18.38	1.71	7.83	1.266	276
11.328	19.01	18.34	1.74	7.86	1.266	276
11.360	18.92	18.25	1.71	7.83	1.266	276
11.392	18.94	18.27	1.72	7.84	1.266	276
11.424	19.03	18.36	1.71	7.84	1.266	276
11.456	19.04	18.37	1.71	7.83	1.266	276
11.488	18.98	18.31	1.74	7.86	1.261	275
11.520	18.99	18.32	1.70	7.82	1.261	275
11.552	19.10	18.43	1.72	7.84	1.261	275
11.584	19.07	18.40	1.71	7.84	1.261	275
11.616	19.04	18.37	1.72	7.84	1.261	275
11.648	19.04	18.37	1.74	7.86	1.261	275
11.680	19.04	18.37	1.70	7.83	1.261	275
11.712	19.02	18.35	1.72	7.84	1.261	275
11.744	18.96	18.29	1.71	7.83	1.261	275
11.776	18.98	18.30	1.72	7.84	1.261	275
11.808	18.98	18.31	1.74	7.86	1.261	275
11.840	18.99	18.32	1.70	7.83	1.261	275
11.872	19.11	18.44	1.72	7.85	1.261	275
11.904	19.12	18.45	1.71	7.83	1.261	275
11.936	19.04	18.37	1.72	7.84	1.261	275
11.968	19.08	18.41	1.74	7.86	1.266	276
12.000	19.13	18.46	1.71	7.83	1.266	276
12.032	19.14	18.47	1.72	7.84	1.266	276
12.064	19.12	18.45	1.71	7.83	1.266	276
12.096	19.17	18.50	1.72	7.84	1.266	276
12.128	19.21	18.54	1.74	7.86	1.266	276
12.160	19.11	18.44	1.71	7.83	1.266	276
12.192	19.10	18.43	1.73	7.85	1.266	276
12.224	19.10	18.43	1.70	7.83	1.266	276
12.256	19.12	18.45	1.73	7.85	1.266	276
12.288	19.04	18.37	1.73	7.85	1.266	276
12.320	19.04	18.37	1.71	7.83	1.266	276
12.352	19.04	18.37	1.72	7.85	1.266	276
12.384	19.00	18.33	1.70	7.82	1.266	276
12.416	19.03	18.36	1.72	7.85	1.261	275
12.448	19.01	18.34	1.73	7.85	1.261	275
12.480	19.03	18.36	1.71	7.83	1.261	275
12.512	19.09	18.42	1.72	7.84	1.261	275
12.544	19.06	18.39	1.70	7.82	1.261	275
12.576	19.05	18.38	1.73	7.85	1.261	275
12.608	19.06	18.39	1.73	7.85	1.261	275
12.640	19.05	18.38	1.71	7.83	1.261	275
12.672	19.03	18.36	1.72	7.84	1.261	275
12.704	19.00	18.33	1.70	7.82	1.261	275
12.736	19.08	18.41	1.73	7.85	1.261	275
12.768	18.98	18.30	1.72	7.85	1.261	275
12.800	18.99	18.32	1.71	7.83	1.261	275
12.832	19.07	18.40	1.72	7.84	1.261	275
12.864	19.03	18.36	1.70	7.82	1.261	275
12.896	18.97	18.30	1.74	7.86	1.257	274
12.928	18.98	18.31	1.72	7.85	1.257	274
12.960	18.91	18.24	1.72	7.84	1.257	274
12.992	18.93	18.25	1.72	7.84	1.257	274
13.024	18.96	18.29	1.70	7.82	1.257	274
13.056	18.99	18.32	1.74	7.86	1.257	274
13.088	18.93	18.25	1.72	7.84	1.257	274
13.120	18.90	18.23	1.71	7.84	1.257	274
13.152	18.84	18.17	1.72	7.84	1.257	274
13.184	18.76	18.09	1.70	7.82	1.257	274
13.216	18.76	18.09	1.74	7.86	1.257	274
13.248	18.72	18.05	1.72	7.84	1.257	274
13.280	18.68	18.01	1.72	7.84	1.257	274
13.312	18.79	18.12	1.71	7.84	1.257	274
13.344	18.77	18.10	1.70	7.82	1.257	274
13.376	18.72	18.05	1.74	7.86	1.257	274
13.408	18.68	18.01	1.71	7.83	1.257	274
13.440	18.71	18.04	1.72	7.84	1.257	274
13.472	18.70	18.03	1.71	7.83	1.257	274
13.504	18.76	18.09	1.71	7.83	1.257	274
13.536	18.73	18.06	1.74	7.86	1.257	274
13.568	18.68	18.01	1.71	7.83	1.257	274
13.600	18.68	18.00	1.72	7.84	1.257	274
13.632	18.72	18.05	1.71	7.83	1.257	274
13.664	18.70	18.03	1.71	7.83	1.257	274
13.696	18.71	18.04	1.74	7.86	1.257	274
13.728	18.66	17.99	1.71	7.83	1.257	274
13.760	18.69	18.02	1.72	7.84	1.257	274
13.792	18.72	18.05	1.71	7.83	1.257	274
13.824	18.73	18.06	1.71	7.84	1.261	275
13.856	18.71	18.04	1.74	7.86	1.261	275
13.888	18.71	18.04	1.71	7.83	1.261	275
13.920	18.75	18.08	1.72	7.84	1.261	275
13.952	18.70	18.03	1.71	7.84	1.261	275
13.984	18.76	18.09	1.71	7.84	1.261	275
14.016	18.75	18.08	1.74	7.86	1.261	275
14.048	18.75	18.08	1.70	7.83	1.261	275
14.080	18.77	18.10	1.72	7.85	1.261	275
14.112	18.78	18.10	1.71	7.83	1.261	275
14.144	18.77	18.10	1.72	7.84	1.261	275
14.176	18.74	18.07	1.74	7.86	1.261	275
14.208	18.69	18.02	1.70	7.83	1.261	275
14.240	18.74	18.07	1.72	7.84	1.261	275
14.272	18.78	18.11	1.71	7.83	1.261	275
14.304	18.76	18.09	1.72	7.84	1.257	274
14.336	18.76	18.09	1.74	7.86	1.257	274
14.368	18.77	18.10	1.70	7.82	1.257	274
14.400	18.77	18.10	1.72	7.85	1.257	274
14.432	18.79	18.12	1.71	7.83	1.257	274
14.464	18.83	18.15	1.72	7.84	1.257	274
14.496	18.76	18.09	1.73	7.85	1.257	274
14.528	18.74	18.07	1.70	7.82	1.257	274
14.560	18.75	18.08	1.72	7.84	1.257	274
14.592	18.77	18.10	1.70	7.82	1.257	274
14.624	18.74	18.07	1.72	7.84	1.257	274
14.656	18.70	18.03	1.73	7.85	1.257	274
14.688	18.60	17.93	1.71	7.83	1.257	274
14.720	18.68	18.01	1.72	7.84	1.257	274
14.752	18.72	18.05	1.70	7.83	1.257	274
14.784	18.74	18.07	1.72	7.84	1.257	274
14.816	18.68	18.01	1.73	7.85	1.257	274
14.848	18.71	18.04	1.71	7.83	1.257	274
14.880	18.78	18.11	1.72	7.84	1.257	274
14.912	18.73	18.06	1.69	7.82	1.257	274
14.944	18.77	18.10	1.72	7.85	1.257	274
14.976	18.74	18.07	1.73	7.85	1.257	274
15.008	18.77	18.10	1.71	7.83	1.257	274
15.040	18.71	18.04	1.72	7.84	1.257	274
15.072	18.71	18.04	1.70	7.82	1.257	274
15.104	18.72	18.05	1.73	7.85	1.257	274
15.136	18.68	18.01	1.73	7.85	1.257	274
15.168	18.70	18.03	1.71	7.83	1.257	274
15.200	18.72	18.05	1.72	7.84	1.257	274
15.232	18.73	18.05	1.70	7.82	1.257	274
15.264	18.66	17.99	1.73	7.85	1.257	274
15.296	18.66	17.99	1.72	7.84	1.257	274
15.328	18.73	18.06	1.71	7.83	1.257	274
15.360	18.71	18.04	1.72	7.84	1.257	274
15.392	18.73	18.06	1.70	7.82	1.257	274
15.424	18.73	18.06	1.73	7.85	1.257	274
15.456	18.77	18.10	1.72	7.85	1.257	274
15.488	18.78	18.11	1.71	7.84	1.257	274
15.520	18.70	18.03	1.72	7.84	1.257	274
15.552	18.71	18.04	1.70	7.83	1.257	274
15.584	18.75	18.08	1.74	7.86	1.257	274
15.616	18.67	18.00	1.72	7.84	1.257	274
15.648	18.70	18.03	1.71	7.84	1.257	274
15.680	18.73	18.05	1.71	7.84	1.257	274
15.712	18.70	18.03	1.70	7.83	1.257	274
15.744	18.72	18.05	1.74	7.86	1.257	274
15.776	18.68	18.01	1.71	7.83	1.257	274
15.808	18.70	18.03	1.72	7.84	1.257	274
15.840	18.72	18.05	1.71	7.84	1.257	274
15.872	18.78	18.11	1.70	7.83	1.257	274
15.904	18.77	18.10	1.74	7.86	1.257	274
15.936	18.73	18.06	1.71	7.83	1.257	274
15.968	18.72	18.05	1.72	7.84	1.257	274
16.000	18.67	18.00	1.72	7.84	1.257	274
16.032	18.66	17.99	1.71	7.83	1.257	274
16.064	18.71	18.04	1.74	7.86	1.257	274
16.096	18.61	17.94	1.71	7.83	1.257	274
16.128	18.69	18.02	1.72	7.84	1.257	274
16.160	18.68	18.00	1.72	7.84	1.257	274
16.192	18.67	18.00	1.71	7.83	1.257	274
16.224	18.63	17.96	1.74	7.86	1.257	274
16.256	18.67	18.00	1.71	7.83	1.257	274
16.288	18.67	18.00	1.72	7.84	1.257	274
16.320	18.66	17.99	1.71	7.83	1.257	274
16.352	18.75	18.08	1.71	7.84	1.257	274
16.384	18.71	18.04	1.74	7.87	1.257	274
16.416	18.73	18.06	1.70	7.83	1.257	274
16.448	18.69	18.02	1.72	7.85	1.257	274
16.480	18.70	18.03	1.71	7.84	1.257	274
16.512	18.71	18.04	1.72	7.84	1.257	274
16.544	18.69	18.02	1.74	7.86	1.257	274
16.576	18.62	17.95	1.71	7.83	1.257	274
16.608	18.71	18.04	1.73	7.85	1.257	274
16.640	18.77	18.10	1.71	7.83	1.257	274
16.672	18.71	18.04	1.72	7.84	1.257	274
16.704	18.71	18.04	1.74	7.86	1.257	274
16.736	18.70	18.03	1.71	7.83	1.257	274
16.768	18.75	18.08	1.72	7.84	1.257	274
16.800	18.70	18.03	1.70	7.83	1.257	274
16.832	18.76	18.09	1.72	7.84	1.257	274
16.864	18.74	18.07	1.74	7.86	1.257	274
16.896	18.76	18.09	1.71	7.83	1.257	274
16.928	18.70	18.03	1.72	7.84	1.257	274
16.960	18.76	18.09	1.70	7.82	1.257	274
16.992	18.75	18.08	1.72	7.84	1.257	274
17.024	18.77	18.10	1.73	7.85	1.257	274
17.056	18.76	18.09	1.71	7.83	1.257	274
17.088	18.77	18.10	1.72	7.84	1.257	274
17.120	18.78	18.11	1.70	7.82	1.257	274
17.152	18.78	18.11	1.73	7.85	1.257	274
17.184	18.78	18.11	1.73	7.85	1.257	274
17.216	18.81	18.14	1.71	7.83	1.257	274
17.248	18.81	18.14	1.72	7.84	1.257	274
17.280	18.82	18.15	1.70	7.82	1.257	274
17.312	18.80	18.13	1.73	7.85	1.257	274
17.344	18.83	18.16	1.73	7.85	1.257	274
17.376	18.80	18.13	1.71	7.83	1.257	274
17.408	18.80	18.13	1.72	7.84	1.257	274
17.440	18.74	18.07	1.70	7.83	1.257	274
17.472	18.79	18.12	1.73	7.85	1.257	274
17.504	18.77	18.10	1.72	7.84	1.257	274
17.536	18.85	18.18	1.71	7.83	1.257	274
17.568	18.95	18.28	1.72	7.84	1.252	273
17.600	18.97	18.30	1.70	7.82	1.252	273
17.632	18.94	18.27	1.73	7.85	1.252	273
17.664	18.90	18.23	1.71	7.84	1.252	273
17.696	18.94	18.27	1.72	7.84	1.252	273
17.728	18.94	18.27	1.71	7.83	1.252	273
17.760	18.94	18.27	1.70	7.83	1.252	273
17.792	18.94	18.27	1.74	7.86	1.252	273
17.824	18.90	18.23	1.72	7.84	1.252	273
17.856	18.92	18.25	1.72	7.84	1.252	273
17.888	18.93	18.26	1.71	7.84	1.252	273
17.920	18.95	18.28	1.71	7.83	1.252	273
17.952	18.92	18.25	1.74	7.86	1.252	273
17.984	18.85	18.18	1.71	7.83	1.252	273
18.016	18.85	18.18	1.72	7.84	1.252	273
18.048	18.98	18.31	1.72	7.84	1.257	274
18.080	18.95	18.28	1.71	7.83	1.257	274
18.112	18.93	18.26	1.74	7.86	1.257	274
18.144	18.91	18.24	1.71	7.83	1.257	274
18.176	18.88	18.21	1.72	7.84	1.257	274
18.208	18.94	18.27	1.72	7.84	1.257	274
18.240	18.92	18.25	1.71	7.83	1.257	274
18.272	18.92	18.25	1.74	7.86	1.257	274
18.304	18.93	18.26	1.71	7.83	1.257	274
18.336	18.91	18.24	1.72	7.84	1.257	274
18.368	18.94	18.27	1.71	7.83	1.257	274
18.400	18.93	18.25	1.72	7.84	1.257	274
18.432	18.90	18.23	1.74	7.86	1.257	274
18.464	18.86	18.19	1.71	7.83	1.257	274
18.496	18.95	18.28	1.72	7.84	1.248	272
18.528	18.98	18.31	1.71	7.84	1.248	272
18.560	18.96	18.29	1.72	7.84	1.248	272
18.592	18.98	18.31	1.74	7.86	1.248	272
18.624	19.02	18.35	1.71	7.83	1.248	272
18.656	19.03	18.36	1.73	7.85	1.248	272
18.688	19.01	18.34	1.71	7.83	1.248	272
18.720	19.03	18.36	1.72	7.84	1.248	272
18.752	19.03	18.36	1.74	7.86	1.248	272
18.784	18.99	18.32	1.71	7.83	1.248	272
18.816	18.98	18.31	1.72	7.84	1.248	272
18.848	18.97	18.30	1.71	7.83	1.248	272
18.880	18.92	18.25	1.72	7.84	1.248	272
18.912	18.95	18.28	1.73	7.85	1.248	272
18.944	18.92	18.25	1.70	7.83	1.248	272
18.976	18.94	18.27	1.72	7.85	1.257	274
19.008	19.06	18.39	1.71	7.83	1.257	274
19.040	19.06	18.39	1.72	7.85	1.257	274
19.072	19.02	18.35	1.73	7.85	1.257	274
19.104	19.03	18.36	1.70	7.83	1.257	274
19.136	19.06	18.39	1.72	7.85	1.257	274
19.168	19.08	18.41	1.70	7.82	1.257	274
19.200	19.08	18.41	1.73	7.85	1.257	274
19.232	19.04	18.37	1.73	7.85	1.257	274
19.264	19.07	18.40	1.71	7.83	1.257	274
19.296	19.05	18.38	1.72	7.85	1.257	274
19.328	19.08	18.41	1.70	7.82	1.257	274
19.360	19.11	18.44	1.73	7.85	1.257	274
19.392	19.09	18.42	1.73	7.85	1.257	274
19.424	19.06	18.39	1.71	7.83	1.257	274
19.456	19.13	18.45	1.72	7.84	1.257	274
19.488	19.15	18.48	1.70	7.82	1.257	274
19.520	19.13	18.46	1.73	7.85	1.257	274
19.552	19.16	18.49	1.73	7.85	1.257	274
19.584	19.18	18.50	1.71	7.83	1.257	274
19.616	19.14	18.47	1.72	7.84	1.257	274
19.648	19.13	18.46	1.70	7.82	1.257	274
19.680	19.11	18.44	1.74	7.86	1.257	274
19.712	19.09	18.42	1.72	7.84	1.257	274
19.744	19.08	18.41	1.72	7.84	1.257	274
19.776	19.11	18.44	1.72	7.84	1.257	274
19.808	19.12	18.45	1.70	7.82	1.257	274
19.840	19.10	18.43	1.74	7.86	1.257	274
19.872	19.07	18.40	1.72	7.85	1.257	274
19.904	19.13	18.46	1.71	7.84	1.252	273
19.936	19.14	18.47	1.72	7.84	1.252	273
19.968	19.14	18.47	1.70	7.82	1.252	273
20.000	19.13	18.46	1.74	7.86	1.252	273
20.032	19.11	18.44	1.72	7.84	1.252	273
20.064	19.16	18.49	1.72	7.84	1.252	273
20.096	19.18	18.51	1.71	7.84	1.252	273
20.128	19.19	18.52	1.70	7.83	1.252	273
20.160	19.19	18.52	1.74	7.86	1.252	273
20.192	19.20	18.53	1.72	7.84	1.252	273
20.224	19.21	18.54	1.72	7.84	1.252	273
20.256	19.16	18.49	1.72	7.84	1.252	273
20.288	19.18	18.51	1.71	7.83	1.252	273
20.320	19.14	18.47	1.74	7.86	1.252	273
20.352	19.14	18.47	1.71	7.84	1.252	273
20.384	19.17	18.50	1.72	7.84	1.252	273
20.416	19.21	18.54	1.72	7.84	1.252	273
20.448	19.23	18.56	1.71	7.83	1.252	273
20.480	19.22	18.55	1.74	7.87	1.252	273
20.512	19.25	18.58	1.71	7.83	1.252	273
20.544	19.21	18.54	1.72	7.84	1.252	273
20.576	19.24	18.57	1.71	7.83	1.252	273
20.608	19.28	18.60	1.71	7.83	1.252	273
20.640	19.31	18.64	1.74	7.86	1.252	273
20.672	19.29	18.62	1.71	7.83	1.252	273
20.704	19.24	18.57	1.72	7.84	1.252	273
20.736	19.25	18.58	1.72	7.84	1.252	273
20.768	19.24	18.57	1.72	7.84	1.252	273
20.800	19.23	18.56	1.74	7.87	1.252	273
20.832	19.19	18.52	1.71	7.83	1.257	274
20.864	19.21	18.54	1.72	7.84	1.257	274
20.896	19.32	18.65	1.72	7.84	1.257	274
20.928	19.31	18.64	1.72	7.84	1.257	274
20.960	19.30	18.63	1.74	7.86	1.257	274
20.992	19.31	18.64	1.70	7.83	1.257	274
21.024	19.31	18.64	1.72	7.84	1.257	274
21.056	19.30	18.63	1.71	7.83	1.257	274
21.088	19.30	18.63	1.72	7.84	1.257	274
21.120	19.31	18.64	1.74	7.86	1.257	274
21.152	19.30	18.63	1.71	7.83	1.257	274
21.184	19.30	18.63	1.72	7.84	1.257	274
21.216	19.31	18.64	1.71	7.83	1.257	274
21.248	19.29	18.62	1.72	7.84	1.257	274
21.280	19.39	18.72	1.74	7.86	1.257	274
21.312	19.30	18.63	1.71	7.83	1.257	274
21.344	19.37	18.70	1.73	7.85	1.257	274
21.376	19.36	18.69	1.71	7.83	1.257	274
21.408	19.32	18.65	1.72	7.84	1.257	274
21.440	19.29	18.62	1.74	7.86	1.257	274
21.472	19.33	18.66	1.71	7.83	1.257	274
21.504	19.32	18.65	1.73	7.85	1.257	274
21.536	19.35	18.68	1.71	7.83	1.257	274
21.568	19.37	18.70	1.72	7.84	1.257	274
21.600	19.38	18.71	1.74	7.86	1.257	274
21.632	19.37	18.70	1.71	7.83	1.257	274
21.664	19.35	18.68	1.73	7.85	1.257	274
21.696	19.37	18.70	1.71	7.83	1.257	274
21.728	19.36	18.69	1.72	7.84	1.257	274
21.760	19.35	18.68	1.74	7.86	1.257	274
21.792	19.40	18.73	1.71	7.83	1.257	274
21.824	19.44	18.77	1.73	7.85	1.257	274
21.856	19.41	18.74	1.70	7.83	1.257	274
21.888	19.43	18.76	1.73	7.85	1.257	274
21.920	19.42	18.75	1.74	7.86	1.257	274
21.952	19.41	18.74	1.71	7.83	1.257	274
21.984	19.44	18.77	1.73	7.85	1.257	274
22.016	19.42	18.75	1.70	7.82	1.257	274
22.048	19.49	18.82	1.72	7.84	1.257	274
22.080	19.44	18.77	1.73	7.85	1.257	274
22.112	19.45	18.78	1.71	7.84	1.257	274
22.144	19.48	18.81	1.72	7.84	1.257	274
22.176	19.44	18.77	1.70	7.82	1.257	274
22.208	19.45	18.78	1.73	7.85	1.257	274
22.240	19.44	18.77	1.73	7.85	1.252	273
22.272	19.45	18.78	1.71	7.83	1.252	273
22.304	19.48	18.81	1.72	7.84	1.252	273
22.336	19.48	18.81	1.70	7.82	1.252	273
22.368	19.46	18.79	1.73	7.85	1.252	273
22.400	19.47	18.80	1.74	7.86	1.252	273
22.432	19.49	18.82	1.71	7.83	1.252	273
22.464	19.50	18.83	1.73	7.85	1.252	273
22.496	19.52	18.85	1.70	7.82	1.252	273
22.528	19.49	18.82	1.73	7.85	1.252	273
22.560	19.55	18.88	1.73	7.85	1.252	273
22.592	19.50	18.83	1.71	7.84	1.252	273
22.624	19.51	18.84	1.72	7.85	1.252	273
22.656	19.45	18.78	1.70	7.82	1.252	273
22.688	19.54	18.87	1.73	7.85	1.252	273
22.720	19.50	18.83	1.73	7.85	1.243	271
22.752	19.49	18.82	1.71	7.83	1.243	271
22.784	19.59	18.92	1.72	7.84	1.243	271
22.816	19.52	18.85	1.70	7.82	1.243	271
22.848	19.55	18.88	1.73	7.85	1.243	271
22.880	19.54	18.87	1.73	7.85	1.243	271
22.912	19.61	18.94	1.71	7.83	1.243	271
22.944	19.59	18.92	1.73	7.85	1.243	271
22.976	19.65	18.98	1.70	7.82	1.243	271
23.008	19.67	19.00	1.74	7.86	1.243	271
23.040	19.68	19.01	1.73	7.85	1.243	271
23.072	19.68	19.00	1.72	7.84	1.243	271
23.104	19.66	18.99	1.72	7.84	1.243	271
23.136	19.72	19.05	1.70	7.82	1.243	271
23.168	19.73	19.06	1.74	7.86	1.243	271
23.200	19.70	19.03	1.72	7.85	1.257	274
23.232	19.73	19.06	1.71	7.84	1.257	274
23.264	19.74	19.07	1.72	7.84	1.257	274
23.296	19.77	19.10	1.70	7.82	1.257	274
23.328	19.77	19.10	1.74	7.86	1.257	274
23.360	19.74	19.07	1.73	7.85	1.257	274
23.392	19.79	19.12	1.72	7.84	1.257	274
23.424	19.78	19.11	1.73	7.85	1.257	274
23.456	19.83	19.15	1.70	7.83	1.257	274
23.488	19.78	19.10	1.74	7.86	1.257	274
23.520	19.76	19.09	1.72	7.84	1.257	274
23.552	19.77	19.10	1.72	7.84	1.257	274
23.584	19.79	19.12	1.72	7.84	1.257	274
23.616	19.72	19.05	1.70	7.82	1.257	274
23.648	19.81	19.14	1.74	7.86	1.257	274
23.680	19.77	19.10	1.72	7.84	1.257	274
23.712	19.79	19.12	1.71	7.83	1.257	274
23.744	19.80	19.13	1.72	7.84	1.257	274
23.776	19.75	19.08	1.71	7.83	1.257	274
23.808	19.76	19.09	1.74	7.86	1.257	274
23.840	19.78	19.10	1.72	7.84	1.257	274
23.872	19.79	19.12	1.72	7.84	1.257	274
23.904	19.78	19.10	1.72	7.84	1.257	274
23.936	19.83	19.16	1.70	7.82	1.257	274
23.968	19.75	19.08	1.74	7.86	1.257	274
24.000	19.78	19.11	1.72	7.84	1.257	274
24.032	19.78	19.11	1.72	7.84	1.257	274
24.064	19.77	19.10	1.72	7.84	1.257	274
24.096	19.74	19.07	1.70	7.83	1.257	274
24.128	19.73	19.05	1.74	7.86	1.257	274
24.160	19.75	19.08	1.72	7.84	1.257	274
24.192	19.82	19.15	1.72	7.84	1.257	274
24.224	19.75	19.08	1.72	7.84	1.257	274
24.256	19.79	19.12	1.70	7.83	1.257	274
24.288	19.76	19.09	1.74	7.86	1.257	274
24.320	19.77	19.10	1.72	7.84	1.257	274
24.352	19.79	19.12	1.72	7.84	1.257	274
24.384	19.73	19.06	1.72	7.84	1.257	274
24.416	19.76	19.09	1.70	7.83	1.257	274
24.448	19.76	19.09	1.74	7.86	1.257	274
24.480	19.78	19.11	1.72	7.84	1.257	274
24.512	19.79	19.12	1.71	7.84	1.257	274
24.544	19.81	19.14	1.72	7.84	1.257	274
24.576	19.79	19.12	1.71	7.83	1.257	274
24.608	19.74	19.07	1.74	7.86	1.257	274
24.640	19.76	19.09	1.72	7.84	1.257	274
24.672	19.80	19.13	1.72	7.84	1.257	274
24.704	19.83	19.16	1.71	7.84	1.257	274
24.736	19.81	19.14	1.70	7.83	1.257	274
24.768	19.83	19.16	1.74	7.86	1.257	274
24.800	19.84	19.17	1.71	7.84	1.257	274
24.832	19.80	19.13	1.71	7.84	1.257	274
24.864	19.85	19.18	1.71	7.83	1.257	274
24.896	19.84	19.17	1.70	7.83	1.257	274
24.928	19.84	19.17	1.74	7.87	1.257	274
24.960	19.82	19.15	1.71	7.84	1.257	274
24.992	19.73	19.06	1.72	7.84	1.257	274
25.024	19.72	19.05	1.72	7.84	1.257	274
25.056	19.74	19.07	1.71	7.83	1.261	275
25.088	19.73	19.05	1.74	7.86	1.261	275
25.120	19.75	19.08	1.72	7.84	1.261	275
25.152	19.77	19.10	1.72	7.84	1.261	275
25.184	19.82	19.15	1.72	7.84	1.261	275
25.216	19.81	19.14	1.70	7.82	1.261	275
25.248	19.83	19.16	1.74	7.86	1.261	275
25.280	19.85	19.18	1.72	7.84	1.261	275
25.312	19.86	19.19	1.72	7.84	1.261	275
25.344	19.89	19.22	1.72	7.84	1.261	275
25.376	19.89	19.22	1.70	7.82	1.261	275
25.408	19.82	19.15	1.74	7.86	1.261	275
25.440	19.81	19.14	1.72	7.84	1.261	275
25.472	19.78	19.11	1.71	7.83	1.261	275
25.504	19.75	19.08	1.72	7.84	1.261	275
25.536	19.75	19.08	1.70	7.82	1.261	275
25.568	19.74	19.07	1.74	7.86	1.261	275
25.600	19.82	19.15	1.72	7.84	1.261	275
25.632	19.82	19.15	1.72	7.84	1.261	275
25.664	19.75	19.08	1.72	7.84	1.261	275
25.696	19.82	19.15	1.70	7.83	1.261	275
25.728	19.77	19.10	1.74	7.86	1.261	275
25.760	19.82	19.15	1.72	7.84	1.261	275
25.792	19.79	19.12	1.72	7.84	1.261	275
25.824	19.81	19.14	1.72	7.84	1.261	275
25.856	19.80	19.13	1.70	7.82	1.261	275
25.888	19.73	19.06	1.74	7.86	1.261	275
25.920	19.72	19.05	1.72	7.84	1.261	275
25.952	19.74	19.07	1.72	7.84	1.261	275
25.984	19.71	19.04	1.72	7.84	1.257	274
26.016	19.72	19.05	1.70	7.83	1.257	274
26.048	19.71	19.04	1.74	7.86	1.257	274
26.080	19.76	19.09	1.72	7.84	1.257	274
26.112	19.77	19.10	1.72	7.84	1.257	274
26.144	19.78	19.11	1.72	7.84	1.257	274
26.176	19.82	19.15	1.70	7.82	1.257	274
26.208	19.79	19.12	1.74	7.86	1.257	274
26.240	19.85	19.18	1.72	7.84	1.257	274
26.272	19.80	19.13	1.71	7.84	1.257	274
26.304	19.86	19.19	1.72	7.84	1.257	274
26.336	19.78	19.10	1.71	7.83	1.257	274
26.368	19.78	19.11	1.74	7.86	1.257	274
26.400	19.76	19.09	1.72	7.84	1.257	274
26.432	19.68	19.01	1.71	7.84	1.257	274
26.464	19.68	19.01	1.72	7.84	1.266	276
26.496	19.71	19.04	1.70	7.82	1.266	276
26.528	19.69	19.02	1.74	7.86	1.266	276
26.560	19.72	19.05	1.72	7.84	1.266	276
26.592	19.72	19.05	1.71	7.84	1.266	276
26.624	19.71	19.04	1.72	7.84	1.266	276
26.656	19.72	19.05	1.70	7.82	1.266	276
26.688	19.74	19.07	1.74	7.86	1.266	276
26.720	19.76	19.09	1.72	7.85	1.266	276
26.752	19.74	19.07	1.71	7.84	1.266	276
26.784	19.75	19.08	1.72	7.84	1.266	276
26.816	19.75	19.08	1.70	7.82	1.266	276
26.848	19.73	19.06	1.74	7.86	1.266	276
26.880	19.75	19.08	1.72	7.84	1.266	276
26.912	19.75	19.08	1.72	7.84	1.266	276
26.944	19.70	19.03	1.72	7.84	1.261	275
26.976	19.63	18.96	1.70	7.83	1.261	275
27.008	19.75	19.08	1.74	7.86	1.261	275
27.040	19.76	19.09	1.73	7.85	1.261	275
27.072	19.78	19.11	1.71	7.84	1.261	275
27.104	19.77	19.10	1.72	7.84	1.261	275
27.136	19.78	19.11	1.70	7.82	1.261	275
27.168	19.83	19.16	1.74	7.86	1.261	275
27.200	19.79	19.12	1.72	7.84	1.261	275
27.232	19.79	19.12	1.71	7.84	1.261	275
27.264	19.77	19.10	1.72	7.84	1.261	275
27.296	19.75	19.08	1.70	7.82	1.261	275
27.328	19.75	19.08	1.74	7.86	1.261	275
27.360	19.73	19.06	1.72	7.84	1.261	275
27.392	19.73	19.06	1.71	7.84	1.261	275
27.424	19.63	18.96	1.72	7.84	1.261	275
27.456	19.64	18.97	1.70	7.82	1.261	275
27.488	19.71	19.04	1.74	7.86	1.261	275
27.520	19.73	19.06	1.72	7.85	1.261	275
27.552	19.75	19.08	1.71	7.83	1.261	275
27.584	19.73	19.05	1.72	7.84	1.261	275
27.616	19.78	19.10	1.70	7.82	1.261	275
27.648	19.81	19.14	1.73	7.85	1.261	275
27.680	19.80	19.13	1.73	7.85	1.261	275
27.712	19.81	19.14	1.71	7.83	1.261	275
27.744	19.80	19.13	1.72	7.84	1.261	275
27.776	19.78	19.10	1.70	7.82	1.261	275
27.808	19.75	19.08	1.73	7.85	1.261	275
27.840	19.74	19.07	1.73	7.85	1.261	275
27.872	19.75	19.08	1.71	7.83	1.261	275
27.904	19.73	19.06	1.72	7.84	1.261	275
27.936	19.76	19.09	1.70	7.82	1.261	275
27.968	19.80	19.13	1.73	7.85	1.261	275
28.000	19.88	19.21	1.72	7.85	1.261	275
28.032	19.85	19.18	1.71	7.84	1.261	275
28.064	19.80	19.13	1.72	7.84	1.261	275
28.096	19.84	19.17	1.70	7.82	1.261	275
28.128	19.84	19.17	1.74	7.86	1.261	275
28.160	19.80	19.13	1.73	7.85	1.261	275
28.192	19.84	19.17	1.71	7.83	1.261	275
28.224	19.85	19.18	1.72	7.84	1.261	275
28.256	19.89	19.22	1.70	7.82	1.261	275
28.288	19.87	19.20	1.73	7.85	1.261	275
28.320	19.81	19.14	1.73	7.85	1.261	275
28.352	19.81	19.14	1.71	7.83	1.261	275
28.384	19.82	19.15	1.72	7.85	1.261	275
28.416	19.83	19.15	1.70	7.82	1.261	275
28.448	19.90	19.23	1.74	7.86	1.261	275
28.480	19.87	19.20	1.72	7.85	1.261	275
28.512	19.90	19.23	1.71	7.83	1.261	275
28.544	19.85	19.18	1.72	7.84	1.261	275
28.576	19.87	19.20	1.70	7.82	1.261	275
28.608	19.82	19.15	1.73	7.85	1.261	275
28.640	19.84	19.17	1.73	7.85	1.261	275
28.672	19.86	19.19	1.71	7.83	1.261	275
28.704	19.80	19.13	1.72	7.85	1.261	275
28.736	19.76	19.09	1.70	7.82	1.261	275
28.768	19.81	19.14	1.73	7.85	1.261	275
28.800	19.79	19.12	1.73	7.85	1.261	275
28.832	19.80	19.13	1.71	7.83	1.261	275
28.864	19.74	19.07	1.72	7.85	1.261	275
28.896	19.78	19.10	1.70	7.82	1.261	275
28.928	19.83	19.16	1.73	7.85	1.261	275
28.960	19.84	19.17	1.73	7.85	1.261	275
28.992	19.79	19.12	1.71	7.84	1.261	275
29.024	19.81	19.14	1.72	7.84	1.261	275
29.056	19.85	19.18	1.70	7.82	1.261	275
29.088	19.84	19.17	1.73	7.85	1.261	275
29.120	19.85	19.18	1.73	7.85	1.261	275
29.152	19.88	19.20	1.71	7.83	1.261	275
29.184	19.87	19.20	1.72	7.84	1.261	275
29.216	19.86	19.19	1.70	7.82	1.261	275
29.248	19.78	19.11	1.73	7.85	1.261	275
29.280	19.79	19.12	1.73	7.85	1.257	274
29.312	19.87	19.20	1.71	7.84	1.257	274
29.344	19.90	19.23	1.72	7.84	1.257	274
29.376	19.90	19.23	1.70	7.82	1.257	274
29.408	20.07	19.40	1.73	7.85	1.257	274
29.440	20.09	19.42	1.73	7.85	1.257	274
29.472	20.08	19.40	1.71	7.83	1.257	274
29.504	20.11	19.44	1.72	7.84	1.257	274
29.536	20.23	19.56	1.70	7.82	1.257	274
29.568	20.24	19.57	1.72	7.84	1.257	274
29.600	20.30	19.63	1.73	7.85	1.257	274
29.632	20.33	19.66	1.71	7.83	1.257	274
29.664	20.51	19.84	1.72	7.84	1.257	274
29.696	20.35	19.68	1.70	7.82	1.257	274
29.728	20.33	19.66	1.73	7.85	1.257	274
29.760	20.19	19.52	1.73	7.85	1.257	274
29.792	19.90	19.23	1.71	7.83	1.257	274
29.824	19.90	19.23	1.72	7.84	1.257	274
29.856	20.02	19.35	1.70	7.82	1.257	274
29.888	20.08	19.41	1.73	7.85	1.257	274
29.920	20.05	19.38	1.73	7.85	1.257	274
29.952	20.33	19.66	1.71	7.84	1.257	274
29.984	20.47	19.80	1.72	7.85	1.257	274
30.016	20.24	19.57	1.70	7.82	1.257	274
30.048	20.33	19.66	1.73	7.85	1.257	274
30.080	20.37	19.70	1.73	7.85	1.257	274
30.112	19.98	19.31	1.71	7.83	1.257	274
30.144	19.94	19.27	1.72	7.84	1.257	274
30.176	19.97	19.30	1.70	7.82	1.257	274
30.208	19.95	19.28	1.73	7.85	1.261	275
30.240	20.06	19.39	1.73	7.85	1.261	275
30.272	20.05	19.38	1.71	7.83	1.261	275
30.304	19.92	19.25	1.72	7.85	1.261	275
30.336	19.95	19.28	1.70	7.83	1.261	275
30.368	19.99	19.32	1.73	7.85	1.261	275
30.400	20.00	19.33	1.73	7.85	1.261	275
30.432	20.02	19.35	1.71	7.83	1.261	275
30.464	20.05	19.38	1.72	7.84	1.261	275
30.496	20.10	19.43	1.70	7.82	1.261	275
30.528	20.13	19.45	1.73	7.85	1.261	275
30.560	20.05	19.38	1.73	7.85	1.261	275
30.592	20.02	19.35	1.71	7.83	1.261	275
30.624	20.01	19.34	1.72	7.84	1.261	275
30.656	20.03	19.36	1.70	7.82	1.261	275
30.688	20.05	19.38	1.73	7.85	1.257	274
30.720	20.06	19.39	1.73	7.85	1.257	274
30.752	20.07	19.40	1.71	7.83	1.257	274
30.784	20.14	19.47	1.72	7.85	1.257	274
30.816	20.23	19.56	1.70	7.82	1.257	274
30.848	20.37	19.70	1.73	7.85	1.257	274
30.880	20.36	19.69	1.74	7.86	1.257	274
30.912	20.35	19.68	1.71	7.84	1.257	274
30.944	20.31	19.64	1.72	7.85	1.257	274
30.976	20.29	19.62	1.70	7.82	1.257	274
31.008	20.31	19.64	1.73	7.85	1.257	274
31.040	20.28	19.60	1.73	7.85	1.257	274
31.072	20.22	19.55	1.71	7.83	1.257	274
31.104	20.21	19.54	1.73	7.85	1.257	274
31.136	20.22	19.55	1.70	7.83	1.261	275
31.168	20.20	19.53	1.73	7.85	1.261	275
31.200	20.19	19.52	1.73	7.85	1.261	275
31.232	20.14	19.47	1.71	7.83	1.261	275
31.264	20.22	19.55	1.72	7.84	1.261	275
31.296	20.24	19.57	1.70	7.83	1.261	275
31.328	20.25	19.58	1.73	7.85	1.261	275
31.360	20.21	19.54	1.73	7.85	1.261	275
31.392	20.17	19.50	1.71	7.83	1.261	275
31.424	20.23	19.55	1.73	7.85	1.261	275
31.456	20.21	19.54	1.70	7.82	1.261	275
31.488	20.23	19.55	1.73	7.85	1.261	275
31.520	20.20	19.53	1.73	7.85	1.261	275
31.552	20.17	19.50	1.71	7.83	1.261	275
31.584	20.18	19.51	1.72	7.84	1.261	275
31.616	20.20	19.53	1.71	7.83	1.261	275
31.648	20.16	19.49	1.73	7.85	1.261	275
31.680	20.15	19.48	1.74	7.86	1.261	275
31.712	20.14	19.47	1.71	7.84	1.261	275
31.744	20.20	19.53	1.73	7.85	1.261	275
31.776	20.21	19.54	1.70	7.82	1.261	275
31.808	20.18	19.50	1.73	7.85	1.261	275
31.840	20.15	19.48	1.74	7.86	1.261	275
31.872	20.15	19.48	1.71	7.83	1.261	275
31.904	20.13	19.46	1.73	7.85	1.261	275
31.936	20.10	19.43	1.70	7.82	1.261	275
31.968	20.13	19.46	1.73	7.85	1.261	275
32.000	20.11	19.44	1.74	7.86	1.261	275
32.032	20.07	19.40	1.71	7.84	1.261	275
32.064	20.11	19.44	1.73	7.85	1.261	275
32.096	20.15	19.48	1.70	7.82	1.257	274
32.128	20.17	19.50	1.73	7.85	1.257	274
32.160	20.14	19.47	1.74	7.86	1.257	274
32.192	20.16	19.49	1.71	7.84	1.257	274
32.224	20.20	19.53	1.72	7.85	1.257	274
32.256	20.02	19.35	1.70	7.82	1.257	274
32.288	19.90	19.23	1.73	7.85	1.257	274
32.320	19.82	19.15	1.73	7.85	1.257	274
32.352	19.77	19.10	1.71	7.83	1.257	274
32.384	19.75	19.08	1.73	7.85	1.257	274
32.416	19.78	19.11	1.70	7.82	1.257	274
32.448	19.74	19.07	1.73	7.85	1.257	274
32.480	19.78	19.11	1.74	7.86	1.257	274
32.512	19.71	19.04	1.71	7.84	1.257	274
32.544	19.73	19.06	1.72	7.85	1.257	274
32.576	19.69	19.02	1.70	7.82	1.257	274
32.608	19.68	19.00	1.73	7.85	1.257	274
32.640	19.66	18.99	1.73	7.85	1.257	274
32.672	19.66	18.99	1.71	7.83	1.257	274
32.704	19.68	19.01	1.73	7.85	1.257	274
32.736	19.77	19.10	1.70	7.82	1.257	274
32.768	19.74	19.07	1.74	7.86	1.257	274
32.800	19.75	19.08	1.74	7.86	1.257	274
32.832	19.73	19.06	1.71	7.83	1.257	274
32.864	19.75	19.08	1.73	7.85	1.257	274
32.896	19.75	19.08	1.70	7.82	1.257	274
32.928	19.72	19.05	1.73	7.85	1.257	274
32.960	19.73	19.06	1.73	7.85	1.257	274
32.992	19.72	19.05	1.71	7.83	1.257	274
33.024	19.72	19.05	1.73	7.85	1.261	275
33.056	19.68	19.01	1.70	7.82	1.261	275
33.088	19.67	19.00	1.73	7.85	1.261	275
33.120	19.67	19.00	1.73	7.85	1.261	275
33.152	19.70	19.03	1.71	7.83	1.261	275
33.184	19.71	19.04	1.72	7.84	1.261	275
33.216	19.70	19.03	1.70	7.83	1.261	275
33.248	19.71	19.04	1.73	7.85	1.261	275
33.280	19.71	19.04	1.73	7.85	1.261	275
33.312	19.73	19.06	1.71	7.83	1.261	275
33.344	19.65	18.98	1.72	7.85	1.261	275
33.376	19.62	18.95	1.71	7.83	1.261	275
33.408	19.66	18.99	1.73	7.85	1.261	275
33.440	19.70	19.03	1.74	7.86	1.261	275
33.472	19.71	19.04	1.71	7.83	1.257	274
33.504	19.71	19.04	1.72	7.85	1.257	274
33.536	19.67	19.00	1.70	7.83	1.257	274
33.568	19.66	18.99	1.73	7.85	1.257	274
33.600	19.66	18.99	1.74	7.86	1.257	274
33.632	19.66	18.99	1.71	7.83	1.257	274
33.664	19.66	18.99	1.73	7.85	1.257	274
33.696	19.68	19.01	1.71	7.83	1.257	274
33.728	19.68	19.00	1.73	7.85	1.257	274
33.760	19.72	19.05	1.74	7.86	1.257	274
33.792	19.72	19.05	1.71	7.83	1.257	274
33.824	19.70	19.03	1.72	7.85	1.257	274
33.856	19.68	19.01	1.70	7.82	1.257	274
33.888	19.69	19.02	1.73	7.85	1.257	274
33.920	19.67	19.00	1.73	7.85	1.257	274
33.952	19.67	19.00	1.71	7.83	1.261	275
33.984	19.66	18.99	1.72	7.85	1.261	275
34.016	19.70	19.03	1.70	7.82	1.261	275
34.048	19.71	19.04	1.73	7.85	1.261	275
34.080	19.72	19.05	1.73	7.85	1.261	275
34.112	19.73	19.06	1.71	7.83	1.261	275
34.144	19.78	19.11	1.72	7.84	1.261	275
34.176	19.76	19.09	1.70	7.82	1.261	275
34.208	19.72	19.05	1.73	7.85	1.261	275
34.240	19.71	19.04	1.73	7.85	1.261	275
34.272	19.71	19.04	1.71	7.83	1.261	275
34.304	19.72	19.05	1.72	7.85	1.261	275
34.336	19.75	19.08	1.70	7.82	1.261	275
34.368	19.76	19.09	1.73	7.85	1.261	275
34.400	19.75	19.08	1.73	7.85	1.261	275
34.432	19.72	19.05	1.71	7.83	1.261	275
34.464	19.77	19.10	1.72	7.85	1.261	275
34.496	19.78	19.11	1.70	7.82	1.261	275
34.528	19.77	19.10	1.73	7.85	1.261	275
34.560	19.72	19.05	1.73	7.85	1.261	275
34.592	19.76	19.09	1.71	7.83	1.261	275
34.624	19.73	19.05	1.72	7.84	1.261	275
34.656	19.76	19.09	1.70	7.82	1.261	275
34.688	19.73	19.06	1.73	7.85	1.261	275
34.720	19.84	19.17	1.74	7.86	1.261	275
34.752	19.81	19.14	1.71	7.83	1.261	275
34.784	19.84	19.17	1.72	7.85	1.261	275
34.816	19.81	19.14	1.70	7.82	1.261	275
34.848	19.82	19.15	1.73	7.85	1.261	275
34.880	19.85	19.18	1.73	7.85	1.257	274
34.912	19.87	19.20	1.71	7.84	1.257	274
34.944	19.85	19.18	1.72	7.84	1.257	274
34.976	19.86	19.19	1.70	7.82	1.257	274
35.008	19.79	19.12	1.73	7.85	1.257	274
35.040	19.87	19.20	1.73	7.85	1.257	274
35.072	19.91	19.24	1.72	7.84	1.257	274
35.104	19.89	19.22	1.72	7.84	1.257	274
35.136	19.91	19.24	1.70	7.82	1.257	274
35.168	19.95	19.28	1.74	7.86	1.257	274
35.200	19.97	19.30	1.72	7.85	1.257	274
35.232	20.00	19.33	1.72	7.84	1.257	274
35.264	20.12	19.45	1.72	7.84	1.257	274
35.296	20.24	19.57	1.70	7.82	1.257	274
35.328	20.44	19.77	1.74	7.86	1.257	274
35.360	20.41	19.74	1.73	7.85	1.257	274
35.392	20.34	19.67	1.72	7.84	1.257	274
35.424	20.31	19.64	1.72	7.84	1.257	274
35.456	20.22	19.55	1.70	7.82	1.257	274
35.488	20.22	19.55	1.73	7.85	1.257	274
35.520	20.22	19.55	1.72	7.84	1.257	274
35.552	20.25	19.58	1.71	7.84	1.257	274
35.584	20.17	19.50	1.72	7.84	1.257	274
35.616	20.15	19.48	1.70	7.83	1.257	274
35.648	20.09	19.42	1.73	7.85	1.257	274
35.680	20.11	19.44	1.73	7.85	1.257	274
35.712	20.05	19.38	1.71	7.83	1.257	274
35.744	20.11	19.44	1.72	7.84	1.257	274
35.776	20.12	19.45	1.70	7.83	1.257	274
35.808	20.07	19.40	1.74	7.86	1.257	274
35.840	20.11	19.44	1.72	7.85	1.257	274
35.872	20.10	19.43	1.72	7.84	1.257	274
35.904	20.10	19.43	1.72	7.84	1.257	274
35.936	20.01	19.34	1.70	7.83	1.257	274
35.968	19.91	19.24	1.74	7.86	1.257	274
36.000	19.97	19.30	1.73	7.85	1.257	274
36.032	19.99	19.32	1.71	7.84	1.257	274
36.064	20.00	19.33	1.72	7.84	1.257	274
36.096	19.99	19.32	1.70	7.82	1.257	274
36.128	19.95	19.28	1.74	7.86	1.257	274
36.160	19.95	19.28	1.72	7.84	1.257	274
36.192	19.97	19.30	1.71	7.84	1.257	274
36.224	20.00	19.33	1.72	7.84	1.257	274
36.256	20.00	19.33	1.71	7.83	1.257	274
36.288	19.99	19.32	1.74	7.86	1.257	274
36.320	19.98	19.31	1.72	7.84	1.257	274
36.352	20.03	19.36	1.72	7.84	1.257	274
36.384	20.11	19.44	1.72	7.84	1.257	274
36.416	20.25	19.58	1.70	7.83	1.257	274
36.448	20.46	19.79	1.74	7.86	1.257	274
36.480	20.30	19.63	1.72	7.84	1.257	274
36.512	19.91	19.24	1.72	7.84	1.257	274
36.544	19.90	19.23	1.72	7.84	1.257	274
36.576	19.87	19.20	1.71	7.83	1.257	274
36.608	19.85	19.18	1.74	7.86	1.257	274
36.640	19.86	19.19	1.71	7.84	1.257	274
36.672	19.80	19.13	1.72	7.84	1.257	274
36.704	19.82	19.15	1.72	7.84	1.257	274
36.736	19.89	19.22	1.71	7.83	1.257	274
36.768	19.87	19.20	1.74	7.86	1.252	273
36.800	19.81	19.14	1.71	7.83	1.252	273
36.832	19.85	19.18	1.72	7.84	1.252	273
36.864	19.88	19.21	1.72	7.84	1.252	273
36.896	19.90	19.23	1.71	7.83	1.252	273
36.928	19.87	19.20	1.74	7.87	1.252	273
36.960	19.95	19.28	1.72	7.84	1.252	273
36.992	19.87	19.20	1.72	7.84	1.252	273
37.024	19.90	19.23	1.72	7.84	1.252	273
37.056	19.95	19.28	1.71	7.83	1.252	273
37.088	19.96	19.29	1.74	7.87	1.252	273
37.120	19.96	19.29	1.71	7.83	1.252	273
37.152	19.98	19.31	1.72	7.84	1.252	273
37.184	19.99	19.32	1.72	7.84	1.252	273
37.216	19.98	19.31	1.71	7.83	1.252	273
37.248	19.99	19.32	1.74	7.86	1.252	273
37.280	19.98	19.30	1.71	7.84	1.252	273
37.312	19.94	19.27	1.72	7.84	1.252	273
37.344	19.94	19.27	1.71	7.83	1.252	273
37.376	19.92	19.25	1.71	7.83	1.252	273
37.408	19.89	19.22	1.74	7.86	1.252	273
37.440	19.87	19.20	1.71	7.83	1.252	273
37.472	19.88	19.21	1.72	7.84	1.252	273
37.504	19.88	19.21	1.72	7.84	1.252	273
37.536	19.88	19.21	1.71	7.83	1.252	273
37.568	19.91	19.24	1.74	7.87	1.252	273
37.600	19.96	19.29	1.71	7.83	1.252	273
37.632	20.00	19.33	1.72	7.84	1.252	273
37.664	20.00	19.33	1.72	7.84	1.252	273
37.696	19.78	19.11	1.71	7.83	1.252	273
37.728	19.83	19.16	1.74	7.86	1.252	273
37.760	19.80	19.13	1.71	7.83	1.252	273
37.792	19.69	19.02	1.72	7.84	1.252	273
37.824	19.60	18.93	1.71	7.84	1.252	273
37.856	19.56	18.89	1.71	7.83	1.252	273
37.888	19.64	18.97	1.74	7.86	1.252	273
37.920	19.64	18.97	1.71	7.83	1.252	273
37.952	19.62	18.95	1.72	7.84	1.252	273
37.984	19.61	18.94	1.71	7.84	1.252	273
38.016	19.61	18.94	1.71	7.83	1.252	273
38.048	19.56	18.89	1.74	7.86	1.252	273
38.080	19.54	18.87	1.71	7.83	1.252	273
38.112	19.54	18.87	1.72	7.84	1.252	273
38.144	19.56	18.89	1.71	7.84	1.252	273
38.176	19.55	18.88	1.71	7.83	1.248	272
38.208	19.48	18.80	1.74	7.86	1.248	272
38.240	19.48	18.81	1.71	7.83	1.248	272
38.272	19.53	18.86	1.72	7.84	1.248	272
38.304	19.44	18.77	1.71	7.84	1.248	272
38.336	19.46	18.79	1.71	7.83	1.248	272
38.368	19.54	18.87	1.74	7.86	1.248	272
38.400	19.55	18.88	1.71	7.83	1.248	272
38.432	19.58	18.91	1.72	7.84	1.248	272
38.464	19.55	18.88	1.72	7.84	1.248	272
38.496	19.53	18.85	1.71	7.83	1.248	272
38.528	19.55	18.88	1.74	7.86	1.248	272
38.560	19.56	18.89	1.71	7.83	1.248	272
38.592	19.58	18.90	1.72	7.84	1.248	272
38.624	19.60	18.93	1.72	7.84	1.257	274
38.656	19.57	18.90	1.71	7.83	1.257	274
38.688	19.53	18.85	1.74	7.86	1.257	274
38.720	19.49	18.82	1.71	7.83	1.257	274
38.752	19.47	18.80	1.72	7.85	1.257	274
38.784	19.41	18.74	1.72	7.84	1.257	274
38.816	19.39	18.72	1.71	7.84	1.257	274
38.848	19.49	18.82	1.74	7.86	1.257	274
38.880	19.48	18.81	1.71	7.83	1.257	274
38.912	19.52	18.85	1.72	7.84	1.257	274
38.944	19.54	18.87	1.71	7.83	1.257	274
38.976	19.55	18.88	1.72	7.84	1.257	274
39.008	19.49	18.82	1.74	7.86	1.257	274
39.040	19.52	18.85	1.71	7.83	1.257	274
39.072	19.55	18.88	1.72	7.85	1.257	274
39.104	19.54	18.87	1.72	7.84	1.248	272
39.136	19.52	18.85	1.72	7.84	1.248	272
39.168	19.53	18.85	1.74	7.86	1.248	272
39.200	19.52	18.85	1.71	7.83	1.248	272
39.232	19.52	18.85	1.72	7.85	1.248	272
39.264	19.48	18.81	1.71	7.84	1.248	272
39.296	19.38	18.71	1.72	7.84	1.248	272
39.328	19.50	18.83	1.74	7.86	1.248	272
39.360	19.56	18.89	1.71	7.83	1.248	272
39.392	19.45	18.78	1.73	7.85	1.248	272
39.424	19.49	18.82	1.71	7.83	1.248	272
39.456	19.48	18.81	1.72	7.84	1.248	272
39.488	19.53	18.85	1.74	7.86	1.248	272
39.520	19.50	18.83	1.71	7.83	1.248	272
39.552	19.50	18.83	1.72	7.85	1.248	272
39.584	19.48	18.81	1.71	7.83	1.257	274
39.616	19.44	18.77	1.72	7.84	1.257	274
39.648	19.44	18.77	1.73	7.85	1.257	274
39.680	19.40	18.73	1.70	7.83	1.257	274
39.712	19.42	18.75	1.72	7.84	1.257	274
39.744	19.35	18.68	1.71	7.83	1.257	274
39.776	19.45	18.78	1.72	7.84	1.257	274
39.808	19.50	18.83	1.74	7.86	1.257	274
39.840	19.51	18.84	1.70	7.83	1.257	274
39.872	19.46	18.79	1.72	7.85	1.257	274
39.904	19.44	18.77	1.71	7.83	1.257	274
39.936	19.47	18.80	1.72	7.85	1.257	274
39.968	19.49	18.82	1.74	7.86	1.257	274
40.000	19.53	18.86	1.71	7.83	1.257	274
40.032	19.46	18.79	1.72	7.84	1.252	273
40.064	19.48	18.81	1.70	7.82	1.252	273
40.096	19.46	18.79	1.72	7.85	1.252	273
40.128	19.44	18.77	1.74	7.86	1.252	273
40.160	19.40	18.73	1.71	7.84	1.252	273
40.192	19.37	18.70	1.72	7.85	1.252	273
40.224	19.33	18.66	1.71	7.83	1.252	273
40.256	19.39	18.72	1.72	7.84	1.252	273
40.288	19.45	18.78	1.73	7.85	1.252	273
40.320	19.47	18.80	1.71	7.83	1.252	273
40.352	19.44	18.77	1.72	7.84	1.252	273
40.384	19.45	18.78	1.70	7.83	1.252	273
40.416	19.49	18.82	1.73	7.85	1.252	273
40.448	19.44	18.77	1.73	7.85	1.252	273
40.480	19.46	18.79	1.71	7.83	1.252	273
40.512	19.45	18.78	1.72	7.85	1.239	270
40.544	19.44	18.77	1.70	7.83	1.239	270
40.576	19.41	18.74	1.73	7.85	1.239	270
40.608	19.46	18.79	1.74	7.86	1.239	270
40.640	19.44	18.77	1.71	7.83	1.239	270
40.672	19.40	18.73	1.72	7.84	1.239	270
40.704	19.39	18.72	1.70	7.82	1.239	270
40.736	19.41	18.74	1.73	7.85	1.239	270
40.768	19.46	18.79	1.73	7.85	1.239	270
40.800	19.47	18.80	1.71	7.84	1.239	270
40.832	19.46	18.79	1.72	7.84	1.239	270
40.864	19.47	18.80	1.70	7.82	1.239	270
40.896	19.54	18.87	1.73	7.85	1.239	270
40.928	19.50	18.83	1.73	7.85	1.239	270
40.960	19.52	18.85	1.71	7.83	1.252	273
40.992	19.52	18.85	1.72	7.85	1.252	273
41.024	19.49	18.82	1.70	7.82	1.252	273
41.056	19.46	18.79	1.73	7.85	1.252	273
41.088	19.43	18.76	1.73	7.85	1.252	273
41.120	19.47	18.80	1.71	7.84	1.252	273
41.152	19.50	18.83	1.72	7.84	1.252	273
41.184	19.40	18.73	1.70	7.82	1.252	273
41.216	19.44	18.77	1.74	7.86	1.252	273
41.248	19.50	18.83	1.72	7.85	1.252	273
41.280	19.47	18.80	1.71	7.83	1.252	273
41.312	19.50	18.83	1.72	7.85	1.252	273
41.344	19.55	18.88	1.70	7.83	1.252	273
41.376	19.56	18.89	1.74	7.86	1.252	273
41.408	19.44	18.77	1.73	7.85	1.252	273
41.440	19.50	18.83	1.72	7.84	1.257	274
41.472	19.46	18.79	1.72	7.84	1.257	274
41.504	19.42	18.75	1.70	7.82	1.257	274
41.536	19.44	18.77	1.74	7.86	1.257	274
41.568	19.46	18.79	1.73	7.85	1.257	274
41.600	19.42	18.75	1.72	7.84	1.257	274
41.632	19.34	18.67	1.72	7.84	1.257	274
41.664	19.34	18.67	1.70	7.83	1.257	274
41.696	19.41	18.74	1.74	7.86	1.257	274
41.728	19.41	18.74	1.72	7.84	1.257	274
41.760	19.44	18.77	1.72	7.84	1.257	274
41.792	19.40	18.73	1.72	7.84	1.257	274
41.824	19.40	18.73	1.70	7.82	1.257	274
41.856	19.46	18.79	1.74	7.86	1.257	274
41.888	19.44	18.77	1.72	7.85	1.257	274
41.920	19.45	18.78	1.72	7.84	1.252	273
41.952	19.49	18.82	1.72	7.84	1.252	273
41.984	19.43	18.76	1.71	7.83	1.252	273
42.016	19.45	18.78	1.74	7.86	1.252	273
42.048	19.49	18.82	1.72	7.85	1.252	273
42.080	19.44	18.77	1.72	7.84	1.252	273
42.112	19.41	18.74	1.72	7.84	1.252	273
42.144	19.37	18.70	1.70	7.83	1.252	273
42.176	19.41	18.74	1.74	7.86	1.252	273
42.208	19.43	18.76	1.72	7.84	1.252	273
42.240	19.42	18.75	1.72	7.84	1.252	273
42.272	19.48	18.81	1.72	7.84	1.252	273
42.304	19.47	18.80	1.71	7.83	1.252	273
42.336	19.49	18.82	1.74	7.87	1.252	273
42.368	19.42	18.75	1.72	7.84	1.252	273
42.400	19.55	18.88	1.72	7.84	1.252	273
42.432	19.50	18.83	1.72	7.84	1.252	273
42.464	19.48	18.80	1.71	7.83	1.252	273
42.496	19.42	18.75	1.75	7.87	1.252	273
42.528	19.35	18.68	1.72	7.84	1.252	273
42.560	19.40	18.73	1.72	7.84	1.252	273
42.592	19.41	18.74	1.71	7.84	1.252	273
42.624	19.44	18.77	1.71	7.83	1.252	273
42.656	19.42	18.75	1.74	7.86	1.252	273
42.688	19.41	18.74	1.72	7.84	1.252	273
42.720	19.43	18.75	1.72	7.84	1.252	273
42.752	19.44	18.77	1.71	7.84	1.252	273
42.784	19.47	18.80	1.71	7.83	1.252	273
42.816	19.38	18.70	1.75	7.87	1.252	273
42.848	19.41	18.74	1.71	7.84	1.252	273
42.880	19.45	18.78	1.72	7.84	1.252	273
42.912	19.47	18.80	1.72	7.84	1.252	273
42.944	19.41	18.74	1.71	7.83	1.252	273
42.976	19.44	18.77	1.74	7.87	1.252	273
43.008	19.42	18.75	1.71	7.83	1.252	273
43.040	19.43	18.76	1.72	7.85	1.252	273
43.072	19.40	18.73	1.72	7.84	1.252	273
43.104	19.41	18.74	1.71	7.83	1.252	273
43.136	19.44	18.77	1.74	7.87	1.252	273
43.168	19.43	18.75	1.71	7.83	1.252	273
43.200	19.42	18.75	1.72	7.84	1.252	273
43.232	19.41	18.74	1.72	7.84	1.252	273
43.264	19.46	18.79	1.71	7.83	1.252	273
43.296	19.48	18.81	1.74	7.87	1.252	273
43.328	19.50	18.83	1.71	7.83	1.252	273
43.360	19.48	18.81	1.73	7.85	1.252	273
43.392	19.45	18.78	1.71	7.84	1.252	273
43.424	19.49	18.82	1.71	7.83	1.252	273
43.456	19.46	18.79	1.74	7.86	1.252	273
43.488	19.42	18.75	1.71	7.83	1.252	273
43.520	19.49	18.82	1.72	7.85	1.252	273
43.552	19.44	18.77	1.71	7.84	1.252	273
43.584	19.43	18.76	1.72	7.84	1.252	273
43.616	19.47	18.80	1.75	7.87	1.252	273
43.648	19.48	18.80	1.71	7.83	1.252	273
43.680	19.46	18.79	1.72	7.85	1.252	273
43.712	19.46	18.79	1.71	7.83	1.252	273
43.744	19.50	18.83	1.72	7.84	1.252	273
43.776	19.45	18.78	1.75	7.87	1.252	273
43.808	19.46	18.79	1.71	7.83	1.252	273
43.840	19.45	18.78	1.72	7.84	1.252	273
43.872	19.43	18.76	1.72	7.84	1.252	273
43.904	19.42	18.75	1.72	7.84	1.252	273
43.936	19.47	18.80	1.74	7.87	1.252	273
43.968	19.43	18.76	1.71	7.83	1.252	273
44.000	19.39	18.72	1.73	7.85	1.252	273
44.032	19.45	18.78	1.72	7.84	1.252	273
44.064	19.46	18.79	1.72	7.84	1.252	273
44.096	19.46	18.79	1.75	7.87	1.252	273
44.128	19.48	18.81	1.70	7.83	1.252	273
44.160	19.50	18.83	1.72	7.85	1.252	273
44.192	19.48	18.80	1.71	7.83	1.252	273
44.224	19.51	18.84	1.72	7.84	1.252	273
44.256	19.48	18.81	1.74	7.87	1.257	274
44.288	19.57	18.90	1.71	7.83	1.257	274
44.320	19.54	18.87	1.73	7.85	1.257	274
44.352	19.49	18.82	1.71	7.83	1.257	274
44.384	19.49	18.82	1.72	7.84	1.257	274
44.416	19.47	18.80	1.74	7.87	1.257	274
44.448	19.47	18.80	1.71	7.83	1.257	274
44.480	19.47	18.80	1.72	7.85	1.257	274
44.512	19.39	18.72	1.71	7.83	1.257	274
44.544	19.41	18.74	1.72	7.84	1.257	274
44.576	19.48	18.81	1.74	7.86	1.257	274
44.608	19.48	18.80	1.71	7.83	1.257	274
44.640	19.42	18.75	1.72	7.85	1.257	274
44.672	19.40	18.73	1.71	7.83	1.257	274
44.704	19.48	18.80	1.72	7.84	1.257	274
44.736	19.45	18.78	1.74	7.86	1.252	273
44.768	19.52	18.85	1.71	7.83	1.252	273
44.800	19.56	18.89	1.72	7.85	1.252	273
44.832	19.47	18.80	1.71	7.83	1.252	273
44.864	19.45	18.78	1.72	7.84	1.252	273
44.896	19.40	18.73	1.74	7.86	1.252	273
44.928	19.39	18.72	1.71	7.83	1.252	273
44.960	19.36	18.69	1.73	7.85	1.252	273
44.992	19.33	18.66	1.70	7.82	1.252	273
45.024	19.40	18.73	1.73	7.85	1.252	273
45.056	19.41	18.74	1.74	7.86	1.252	273
45.088	19.39	18.72	1.71	7.83	1.252	273
45.120	19.38	18.71	1.73	7.85	1.252	273
45.152	19.41	18.74	1.71	7.83	1.252	273
45.184	19.42	18.75	1.73	7.85	1.257	274
45.216	19.37	18.70	1.74	7.86	1.257	274
45.248	19.37	18.70	1.71	7.83	1.257	274
45.280	19.35	18.68	1.73	7.85	1.257	274
45.312	19.38	18.71	1.70	7.83	1.257	274
45.344	19.36	18.69	1.73	7.85	1.257	274
45.376	19.36	18.69	1.74	7.86	1.257	274
45.408	19.41	18.74	1.71	7.83	1.257	274
45.440	19.41	18.74	1.73	7.85	1.257	274
45.472	19.44	18.77	1.71	7.83	1.257	274
45.504	19.46	18.79	1.73	7.85	1.257	274
45.536	19.46	18.79	1.74	7.86	1.257	274
45.568	19.49	18.82	1.72	7.84	1.257	274
45.600	19.46	18.79	1.73	7.85	1.257	274
45.632	19.41	18.74	1.70	7.82	1.257	274
45.664	19.47	18.80	1.73	7.85	1.248	272
45.696	19.44	18.77	1.74	7.86	1.248	272
45.728	19.44	18.77	1.71	7.83	1.248	272
45.760	19.44	18.77	1.73	7.85	1.248	272
45.792	19.41	18.74	1.70	7.82	1.248	272
45.824	19.42	18.75	1.74	7.86	1.248	272
45.856	19.40	18.73	1.73	7.85	1.248	272
45.888	19.39	18.72	1.71	7.84	1.248	272
45.920	19.37	18.70	1.73	7.85	1.248	272
45.952	19.39	18.72	1.70	7.82	1.248	272
45.984	19.40	18.73	1.74	7.86	1.248	272
46.016	19.44	18.77	1.73	7.85	1.248	272
46.048	19.44	18.77	1.71	7.84	1.248	272
46.080	19.40	18.73	1.73	7.85	1.248	272
46.112	19.40	18.73	1.70	7.82	1.252	273
46.144	19.47	18.80	1.74	7.86	1.252	273
46.176	19.48	18.80	1.73	7.85	1.252	273
46.208	19.47	18.80	1.71	7.84	1.252	273
46.240	19.43	18.76	1.73	7.85	1.252	273
46.272	19.43	18.76	1.70	7.83	1.252	273
46.304	19.44	18.77	1.74	7.86	1.252	273
46.336	19.43	18.76	1.73	7.85	1.252	273
46.368	19.42	18.75	1.72	7.84	1.252	273
46.400	19.45	18.78	1.72	7.84	1.252	273
46.432	19.40	18.73	1.70	7.82	1.252	273
46.464	19.44	18.77	1.74	7.86	1.252	273
46.496	19.49	18.82	1.73	7.85	1.252	273
46.528	19.46	18.79	1.72	7.84	1.252	273
46.560	19.42	18.75	1.72	7.85	1.252	273
46.592	19.47	18.80	1.70	7.83	1.252	273
46.624	19.42	18.75	1.74	7.86	1.252	273
46.656	19.46	18.79	1.73	7.85	1.252	273
46.688	19.44	18.77	1.71	7.84	1.252	273
46.720	19.46	18.79	1.72	7.84	1.252	273
46.752	19.38	18.70	1.71	7.83	1.252	273
46.784	19.39	18.72	1.75	7.87	1.252	273
46.816	19.35	18.68	1.72	7.84	1.252	273
46.848	19.36	18.69	1.72	7.84	1.252	273
46.880	19.33	18.66	1.72	7.85	1.252	273
46.912	19.38	18.71	1.70	7.82	1.252	273
46.944	19.44	18.77	1.74	7.86	1.252	273
46.976	19.50	18.83	1.72	7.85	1.252	273
47.008	19.49	18.82	1.72	7.84	1.252	273
47.040	19.46	18.79	1.72	7.85	1.252	273
47.072	19.45	18.78	1.70	7.83	1.252	273
47.104	19.47	18.80	1.74	7.86	1.252	273
47.136	19.47	18.80	1.72	7.84	1.252	273
47.168	19.49	18.82	1.72	7.84	1.252	273
47.200	19.45	18.78	1.72	7.84	1.252	273
47.232	19.39	18.72	1.71	7.83	1.252	273
47.264	19.41	18.74	1.74	7.86	1.252	273
47.296	19.40	18.73	1.72	7.84	1.252	273
47.328	19.40	18.73	1.72	7.84	1.252	273
47.360	19.40	18.73	1.72	7.84	1.252	273
47.392	19.45	18.78	1.71	7.83	1.252	273
47.424	19.45	18.78	1.74	7.86	1.252	273
47.456	19.48	18.81	1.72	7.84	1.252	273
47.488	19.46	18.79	1.72	7.84	1.252	273
47.520	19.44	18.77	1.71	7.84	1.252	273
47.552	19.48	18.81	1.71	7.83	1.252	273
47.584	19.51	18.84	1.74	7.86	1.252	273
47.616	19.49	18.82	1.72	7.84	1.252	273
47.648	19.42	18.75	1.73	7.85	1.252	273
47.680	19.42	18.75	1.71	7.84	1.252	273
47.712	19.38	18.71	1.71	7.83	1.252	273
47.744	19.41	18.74	1.74	7.87	1.252	273
47.776	19.38	18.71	1.72	7.84	1.252	273
47.808	19.35	18.68	1.72	7.84	1.252	273
47.840	19.37	18.70	1.72	7.84	1.252	273
47.872	19.44	18.77	1.71	7.83	1.252	273
47.904	19.49	18.82	1.74	7.86	1.252	273
47.936	19.43	18.76	1.72	7.84	1.252	273
47.968	19.43	18.76	1.72	7.84	1.252	273
48.000	19.38	18.71	1.72	7.84	1.252	273
48.032	19.41	18.74	1.71	7.83	1.252	273
48.064	19.40	18.73	1.74	7.86	1.252	273
48.096	19.44	18.77	1.71	7.83	1.252	273
48.128	19.47	18.80	1.72	7.84	1.252	273
48.160	19.44	18.77	1.72	7.84	1.252	273
48.192	19.42	18.75	1.71	7.83	1.252	273
48.224	19.45	18.78	1.74	7.86	1.252	273
48.256	19.42	18.75	1.71	7.83	1.252	273
48.288	19.38	18.71	1.72	7.84	1.252	273
48.320	19.45	18.78	1.72	7.84	1.252	273
48.352	19.47	18.80	1.71	7.83	1.252	273
48.384	19.51	18.84	1.74	7.86	1.252	273
48.416	19.48	18.81	1.70	7.83	1.252	273
48.448	19.45	18.78	1.72	7.84	1.252	273
48.480	19.48	18.81	1.72	7.84	1.257	274
48.512	19.42	18.75	1.71	7.83	1.257	274
48.544	19.42	18.75	1.74	7.86	1.257	274
48.576	19.43	18.76	1.71	7.83	1.257	274
48.608	19.43	18.76	1.72	7.84	1.257	274
48.640	19.42	18.75	1.71	7.83	1.257	274
48.672	19.39	18.72	1.71	7.84	1.257	274
48.704	19.39	18.72	1.74	7.86	1.257	274
48.736	19.40	18.73	1.71	7.83	1.257	274
48.768	19.35	18.68	1.72	7.84	1.257	274
48.800	19.35	18.68	1.71	7.83	1.257	274
48.832	19.41	18.74	1.71	7.83	1.257	274
48.864	19.37	18.70	1.74	7.86	1.257	274
48.896	19.38	18.71	1.70	7.83	1.257	274
48.928	19.39	18.72	1.72	7.85	1.252	273
48.960	19.38	18.70	1.71	7.84	1.252	273
48.992	19.44	18.77	1.71	7.84	1.252	273
49.024	19.41	18.74	1.74	7.86	1.252	273
49.056	19.39	18.72	1.71	7.83	1.252	273
49.088	19.38	18.71	1.72	7.84	1.252	273
49.120	19.33	18.66	1.71	7.83	1.252	273
49.152	19.30	18.63	1.71	7.83	1.252	273
49.184	19.30	18.63	1.74	7.86	1.252	273
49.216	19.25	18.58	1.71	7.83	1.252	273
49.248	19.30	18.63	1.72	7.85	1.252	273
49.280	19.38	18.71	1.71	7.83	1.252	273
49.312	19.42	18.75	1.71	7.84	1.252	273
49.344	19.39	18.72	1.75	7.87	1.252	273
49.376	19.38	18.70	1.71	7.83	1.252	273
49.408	19.42	18.75	1.72	7.84	1.248	272
49.440	19.40	18.73	1.71	7.83	1.248	272
49.472	19.35	18.68	1.72	7.84	1.248	272
49.504	19.38	18.71	1.74	7.86	1.248	272
49.536	19.38	18.71	1.70	7.83	1.248	272
49.568	19.40	18.73	1.72	7.85	1.248	272
49.600	19.35	18.68	1.71	7.83	1.248	272
49.632	19.33	18.66	1.72	7.84	1.248	272
49.664	19.37	18.70	1.74	7.86	1.248	272
49.696	19.38	18.71	1.70	7.83	1.248	272
49.728	19.40	18.73	1.72	7.84	1.248	272
49.760	19.39	18.72	1.71	7.83	1.248	272
49.792	19.36	18.69	1.72	7.84	1.248	272
49.824	19.36	18.69	1.74	7.86	1.248	272
49.856	19.40	18.73	1.71	7.83	1.248	272
49.888	19.35	18.68	1.72	7.85	1.248	272
49.920	19.41	18.74	1.71	7.83	1.248	272
49.952	19.41	18.74	1.72	7.84	1.248	272
49.984	19.43	18.76	1.74	7.86	1.248	272
50.016	19.44	18.77	1.71	7.83	1.248	272
50.048	19.39	18.72	1.72	7.85	1.248	272
50.080	19.36	18.69	1.71	7.83	1.248	272
50.112	19.35	18.68	1.72	7.84	1.248	272
50.144	19.35	18.68	1.74	7.86	1.248	272
50.176	19.37	18.70	1.71	7.83	1.248	272
50.208	19.35	18.68	1.72	7.85	1.248	272
50.240	19.39	18.72	1.70	7.82	1.248	272
50.272	19.41	18.74	1.72	7.85	1.248	272
50.304	19.46	18.79	1.73	7.85	1.248	272
50.336	19.50	18.83	1.71	7.83	1.252	273
50.368	19.46	18.79	1.73	7.85	1.252	273
50.400	19.44	18.77	1.70	7.82	1.252	273
50.432	19.42	18.75	1.72	7.85	1.252	273
50.464	19.41	18.74	1.73	7.85	1.252	273
50.496	19.36	18.69	1.71	7.83	1.252	273
50.528	19.38	18.71	1.73	7.85	1.252	273
50.560	19.34	18.67	1.70	7.82	1.252	273
50.592	19.46	18.79	1.73	7.85	1.252	273
50.624	19.45	18.78	1.73	7.85	1.252	273
50.656	19.39	18.72	1.71	7.83	1.252	273
50.688	19.41	18.74	1.72	7.85	1.252	273
50.720	19.41	18.74	1.70	7.82	1.252	273
50.752	19.41	18.74	1.72	7.85	1.252	273
50.784	19.39	18.72	1.74	7.86	1.252	273
50.816	19.43	18.76	1.71	7.83	1.248	272
50.848	19.40	18.73	1.72	7.85	1.248	272
50.880	19.46	18.79	1.70	7.82	1.248	272
50.912	19.44	18.77	1.73	7.85	1.248	272
50.944	19.47	18.80	1.73	7.85	1.248	272
50.976	19.44	18.77	1.71	7.83	1.248	272
51.008	19.41	18.74	1.72	7.84	1.248	272
51.040	19.43	18.76	1.70	7.82	1.248	272
51.072	19.47	18.80	1.73	7.85	1.248	272
51.104	19.40	18.73	1.73	7.85	1.248	272
51.136	19.41	18.74	1.71	7.83	1.248	272
51.168	19.36	18.69	1.72	7.84	1.248	272
51.200	19.41	18.74	1.70	7.82	1.248	272
51.232	19.41	18.74	1.73	7.85	1.248	272
51.264	19.45	18.78	1.73	7.85	1.252	273
51.296	19.38	18.71	1.71	7.83	1.252	273
51.328	19.42	18.75	1.72	7.84	1.252	273
51.360	19.47	18.80	1.70	7.82	1.252	273
51.392	19.41	18.74	1.73	7.85	1.252	273
51.424	19.45	18.78	1.73	7.85	1.252	273
51.456	19.45	18.78	1.71	7.83	1.252	273
51.488	19.39	18.72	1.72	7.85	1.252	273
51.520	19.37	18.70	1.70	7.82	1.252	273
51.552	19.37	18.70	1.73	7.85	1.252	273
51.584	19.39	18.72	1.73	7.85	1.252	273
51.616	19.38	18.71	1.71	7.83	1.252	273
51.648	19.41	18.74	1.72	7.84	1.252	273
51.680	19.45	18.78	1.70	7.82	1.252	273
51.712	19.48	18.81	1.73	7.85	1.252	273
51.744	19.47	18.80	1.73	7.85	1.252	273
51.776	19.48	18.81	1.71	7.84	1.252	273
51.808	19.49	18.82	1.72	7.84	1.252	273
51.840	19.51	18.84	1.70	7.82	1.252	273
51.872	19.48	18.81	1.74	7.86	1.252	273
51.904	19.49	18.82	1.73	7.85	1.252	273
51.936	19.46	18.79	1.71	7.84	1.252	273
51.968	19.44	18.77	1.72	7.84	1.252	273
52.000	19.46	18.79	1.70	7.82	1.252	273
52.032	19.39	18.72	1.73	7.85	1.252	273
52.064	19.42	18.75	1.73	7.85	1.252	273
52.096	19.41	18.74	1.71	7.84	1.252	273
52.128	19.46	18.79	1.72	7.85	1.252	273
52.160	19.48	18.81	1.70	7.82	1.252	273
52.192	19.46	18.79	1.74	7.86	1.252	273
52.224	19.45	18.78	1.72	7.85	1.252	273
52.256	19.44	18.77	1.71	7.84	1.252	273
52.288	19.47	18.80	1.72	7.84	1.252	273
52.320	19.48	18.80	1.70	7.83	1.252	273
52.352	19.43	18.75	1.74	7.86	1.252	273
52.384	19.45	18.78	1.72	7.85	1.252	273
52.416	19.44	18.77	1.72	7.84	1.252	273
52.448	19.40	18.73	1.72	7.84	1.252	273
52.480	19.39	18.72	1.70	7.82	1.252	273
52.512	19.41	18.74	1.73	7.85	1.252	273
52.544	19.36	18.69	1.73	7.85	1.252	273
52.576	19.36	18.69	1.71	7.84	1.252	273
52.608	19.35	18.68	1.72	7.84	1.252	273
52.640	19.44	18.77	1.70	7.82	1.252	273
52.672	19.48	18.81	1.74	7.86	1.252	273
52.704	19.42	18.75	1.72	7.85	1.252	273
52.736	19.47	18.80	1.71	7.84	1.252	273
52.768	19.50	18.83	1.72	7.84	1.252	273
52.800	19.46	18.79	1.70	7.83	1.252	273
52.832	19.42	18.75	1.74	7.86	1.252	273
52.864	19.46	18.79	1.72	7.84	1.252	273
52.896	19.43	18.76	1.72	7.84	1.252	273
52.928	19.34	18.67	1.72	7.84	1.252	273
52.960	19.40	18.73	1.70	7.82	1.252	273
52.992	19.39	18.72	1.74	7.86	1.252	273
53.024	19.32	18.65	1.72	7.84	1.252	273
53.056	19.28	18.61	1.71	7.84	1.252	273
53.088	19.34	18.67	1.72	7.84	1.252	273
53.120	19.35	18.68	1.70	7.83	1.252	273
53.152	19.34	18.67	1.74	7.86	1.257	274
53.184	19.34	18.67	1.72	7.84	1.257	274
53.216	19.30	18.63	1.72	7.84	1.257	274
53.248	19.37	18.70	1.72	7.84	1.257	274
53.280	19.34	18.67	1.70	7.83	1.257	274
53.312	19.34	18.67	1.74	7.86	1.257	274
53.344	19.35	18.68	1.72	7.84	1.257	274
53.376	19.36	18.69	1.72	7.84	1.257	274
53.408	19.38	18.70	1.72	7.84	1.257	274
53.440	19.33	18.66	1.70	7.82	1.257	274
53.472	19.33	18.66	1.74	7.86	1.257	274
53.504	19.30	18.63	1.72	7.84	1.257	274
53.536	19.27	18.60	1.72	7.84	1.257	274
53.568	19.36	18.69	1.71	7.84	1.257	274
53.600	19.40	18.73	1.70	7.82	1.252	273
53.632	19.43	18.76	1.74	7.86	1.252	273
53.664	19.42	18.75	1.72	7.84	1.252	273
53.696	19.40	18.73	1.71	7.84	1.252	273
53.728	19.40	18.73	1.71	7.84	1.252	273
53.760	19.42	18.75	1.70	7.82	1.252	273
53.792	19.39	18.72	1.74	7.86	1.252	273
53.824	19.41	18.74	1.72	7.84	1.252	273
53.856	19.42	18.75	1.71	7.84	1.252	273
53.888	19.41	18.74	1.71	7.84	1.252	273
53.920	19.32	18.65	1.70	7.82	1.252	273
53.952	19.30	18.63	1.74	7.86	1.252	273
53.984	19.33	18.66	1.72	7.84	1.252	273
54.016	19.31	18.64	1.71	7.83	1.252	273
54.048	19.33	18.66	1.72	7.84	1.252	273
54.080	19.38	18.70	1.70	7.82	1.252	273
54.112	19.38	18.70	1.73	7.85	1.252	273
54.144	19.36	18.69	1.71	7.84	1.252	273
54.176	19.39	18.72	1.71	7.83	1.252	273
54.208	19.40	18.73	1.72	7.84	1.252	273
54.240	19.40	18.73	1.70	7.82	1.252	273
54.272	19.44	18.77	1.73	7.85	1.252	273
54.304	19.38	18.71	1.71	7.84	1.252	273
54.336	19.36	18.69	1.71	7.84	1.252	273
54.368	19.33	18.66	1.71	7.84	1.252	273
54.400	19.32	18.65	1.70	7.82	1.252	273
54.432	19.29	18.62	1.73	7.85	1.252	273
54.464	19.34	18.67	1.71	7.84	1.252	273
54.496	19.33	18.66	1.71	7.83	1.252	273
54.528	19.39	18.72	1.71	7.83	1.252	273
54.560	19.35	18.68	1.70	7.82	1.252	273
54.592	19.35	18.68	1.74	7.86	1.252	273
54.624	19.35	18.68	1.71	7.83	1.252	273
54.656	19.36	18.69	1.71	7.83	1.252	273
54.688	19.37	18.70	1.71	7.84	1.252	273
54.720	19.40	18.73	1.70	7.82	1.252	273
54.752	19.43	18.76	1.74	7.86	1.252	273
54.784	19.40	18.73	1.71	7.83	1.252	273
54.816	19.38	18.71	1.71	7.83	1.252	273
54.848	19.37	18.70	1.72	7.84	1.252	273
54.880	19.33	18.66	1.70	7.82	1.252	273
54.912	19.36	18.69	1.73	7.85	1.252	273
54.944	19.35	18.68	1.71	7.84	1.252	273
54.976	19.38	18.70	1.71	7.83	1.252	273
55.008	19.45	18.78	1.71	7.83	1.257	274
55.040	19.43	18.75	1.70	7.82	1.257	274
55.072	19.40	18.73	1.73	7.85	1.257	274
55.104	19.41	18.74	1.71	7.84	1.257	274
55.136	19.42	18.75	1.71	7.84	1.257	274
55.168	19.40	18.73	1.71	7.83	1.257	274
55.200	19.37	18.70	1.70	7.82	1.257	274
55.232	19.33	18.66	1.73	7.85	1.257	274
55.264	19.34	18.67	1.71	7.83	1.257	274
55.296	19.32	18.65	1.71	7.83	1.257	274
55.328	19.31	18.64	1.71	7.83	1.257	274
55.360	19.31	18.64	1.70	7.82	1.257	274
55.392	19.33	18.66	1.73	7.85	1.257	274
55.424	19.28	18.60	1.71	7.84	1.257	274
55.456	19.38	18.71	1.71	7.83	1.257	274
55.488	19.37	18.70	1.72	7.84	1.252	273
55.520	19.39	18.72	1.70	7.82	1.252	273
55.552	19.34	18.67	1.73	7.85	1.252	273
55.584	19.38	18.70	1.72	7.84	1.252	273
55.616	19.41	18.74	1.71	7.83	1.252	273
55.648	19.38	18.70	1.71	7.83	1.252	273
55.680	19.41	18.74	1.70	7.82	1.252	273
55.712	19.44	18.77	1.74	7.86	1.252	273
55.744	19.44	18.77	1.72	7.84	1.252	273
55.776	19.37	18.70	1.71	7.83	1.252	273
55.808	19.39	18.72	1.71	7.84	1.252	273
55.840	19.40	18.73	1.69	7.82	1.252	273
55.872	19.43	18.76	1.73	7.85	1.252	273
55.904	19.37	18.70	1.71	7.84	1.252	273
55.936	19.36	18.69	1.71	7.83	1.252	273
55.968	19.40	18.73	1.71	7.83	1.257	274
56.000	19.36	18.69	1.70	7.82	1.257	274
56.032	19.37	18.70	1.73	7.85	1.257	274
56.064	19.36	18.69	1.71	7.84	1.257	274
56.096	19.33	18.65	1.71	7.83	1.257	274
56.128	19.35	18.68	1.71	7.83	1.257	274
56.160	19.35	18.68	1.69	7.82	1.257	274
56.192	19.34	18.67	1.73	7.85	1.257	274
56.224	19.35	18.68	1.72	7.84	1.257	274
56.256	19.36	18.69	1.71	7.83	1.257	274
56.288	19.39	18.72	1.72	7.84	1.257	274
56.320	19.35	18.68	1.69	7.82	1.257	274
56.352	19.33	18.66	1.73	7.85	1.257	274
56.384	19.32	18.65	1.71	7.83	1.257	274
56.416	19.38	18.71	1.71	7.83	1.252	273
56.448	19.38	18.71	1.71	7.83	1.252	273
56.480	19.37	18.70	1.69	7.82	1.252	273
56.512	19.31	18.64	1.73	7.85	1.252	273
56.544	19.35	18.68	1.72	7.84	1.252	273
56.576	19.36	18.69	1.71	7.83	1.252	273
56.608	19.35	18.68	1.71	7.83	1.252	273
56.640	19.37	18.70	1.70	7.82	1.252	273
56.672	19.38	18.71	1.73	7.85	1.252	273
56.704	19.37	18.70	1.72	7.84	1.252	273
56.736	19.35	18.68	1.71	7.83	1.252	273
56.768	19.26	18.59	1.71	7.84	1.252	273
56.800	19.27	18.60	1.70	7.82	1.252	273
56.832	19.28	18.60	1.73	7.85	1.252	273
56.864	19.29	18.62	1.72	7.84	1.252	273
56.896	19.37	18.70	1.71	7.83	1.252	273
56.928	19.40	18.73	1.71	7.84	1.252	273
56.960	19.37	18.70	1.69	7.81	1.252	273
56.992	19.38	18.71	1.73	7.85	1.252	273
57.024	19.42	18.75	1.71	7.83	1.252	273
57.056	19.42	18.75	1.71	7.83	1.252	273
57.088	19.41	18.74	1.71	7.84	1.252	273
57.120	19.37	18.70	1.69	7.82	1.252	273
57.152	19.37	18.70	1.73	7.85	1.252	273
57.184	19.38	18.71	1.72	7.84	1.252	273
57.216	19.35	18.68	1.71	7.83	1.252	273
57.248	19.36	18.69	1.71	7.83	1.252	273
57.280	19.36	18.69	1.69	7.82	1.252	273
57.312	19.29	18.62	1.73	7.85	1.252	273
57.344	19.33	18.66	1.72	7.84	1.257	274
57.376	19.36	18.69	1.71	7.83	1.257	274
57.408	19.35	18.68	1.71	7.84	1.257	274
57.440	19.38	18.71	1.69	7.82	1.257	274
57.472	19.36	18.69	1.73	7.85	1.257	274
57.504	19.32	18.65	1.71	7.84	1.257	274
57.536	19.32	18.65	1.71	7.83	1.257	274
57.568	19.33	18.66	1.72	7.84	1.257	274
57.600	19.31	18.64	1.69	7.82	1.257	274
57.632	19.34	18.67	1.73	7.85	1.257	274
57.664	19.29	18.62	1.72	7.84	1.257	274
57.696	19.33	18.66	1.71	7.83	1.257	274
57.728	19.34	18.67	1.71	7.83	1.257	274
57.760	19.40	18.73	1.69	7.82	1.257	274
57.792	19.31	18.64	1.73	7.85	1.257	274
57.824	19.28	18.61	1.72	7.84	1.252	273
57.856	19.32	18.65	1.71	7.83	1.252	273
57.888	19.35	18.68	1.71	7.84	1.252	273
57.920	19.33	18.65	1.70	7.82	1.252	273
57.952	19.36	18.69	1.73	7.85	1.252	273
57.984	19.36	18.69	1.72	7.84	1.252	273
58.016	19.31	18.64	1.70	7.83	1.252	273
58.048	19.32	18.65	1.71	7.84	1.252	273
58.080	19.41	18.74	1.70	7.82	1.252	273
58.112	19.39	18.72	1.73	7.85	1.252	273
58.144	19.36	18.69	1.71	7.83	1.252	273
58.176	19.37	18.70	1.71	7.83	1.252	273
58.208	19.37	18.70	1.71	7.83	1.252	273
58.240	19.41	18.74	1.69	7.81	1.252	273
58.272	19.30	18.63	1.73	7.85	1.252	273
58.304	19.31	18.64	1.72	7.84	1.252	273
58.336	19.39	18.72	1.71	7.83	1.252	273
58.368	19.36	18.69	1.71	7.83	1.252	273
58.400	19.36	18.69	1.69	7.82	1.252	273
58.432	19.37	18.70	1.73	7.85	1.252	273
58.464	19.37	18.70	1.72	7.84	1.252	273
58.496	19.32	18.65	1.70	7.83	1.252	273
58.528	19.33	18.65	1.71	7.83	1.252	273
58.560	19.32	18.65	1.69	7.81	1.252	273
58.592	19.29	18.62	1.73	7.85	1.252	273
58.624	19.30	18.63	1.72	7.84	1.252	273
58.656	19.29	18.62	1.71	7.83	1.252	273
58.688	19.31	18.64	1.71	7.83	1.252	273
58.720	19.31	18.64	1.69	7.81	1.252	273
58.752	19.21	18.54	1.73	7.85	1.252	273
58.784	19.29	18.62	1.72	7.84	1.252	273
58.816	19.32	18.65	1.71	7.83	1.252	273
58.848	19.35	18.68	1.71	7.84	1.252	273
58.880	19.28	18.61	1.69	7.81	1.252	273
58.912	19.28	18.60	1.73	7.85	1.252	273
58.944	19.37	18.70	1.72	7.84	1.252	273
58.976	19.36	18.69	1.71	7.83	1.252	273
59.008	19.35	18.68	1.71	7.84	1.252	273
59.040	19.35	18.68	1.69	7.82	1.252	273
59.072	19.39	18.72	1.73	7.85	1.252	273
59.104	19.30	18.63	1.72	7.84	1.252	273
59.136	19.21	18.54	1.71	7.83	1.252	273
59.168	19.26	18.59	1.71	7.83	1.252	273
59.200	19.27	18.60	1.69	7.82	1.252	273
59.232	19.29	18.62	1.72	7.85	1.257	274
59.264	19.36	18.69	1.72	7.84	1.257	274
59.296	19.34	18.67	1.70	7.83	1.257	274
59.328	19.27	18.60	1.71	7.83	1.257	274
59.360	19.28	18.61	1.69	7.82	1.257	274
59.392	19.29	18.62	1.73	7.85	1.257	274
59.424	19.31	18.64	1.72	7.84	1.257	274
59.456	19.26	18.59	1.71	7.83	1.257	274
59.488	19.39	18.72	1.71	7.84	1.257	274
59.520	19.35	18.68	1.69	7.82	1.257	274
59.552	19.35	18.68	1.73	7.85	1.257	274
59.584	19.30	18.63	1.72	7.84	1.257	274
59.616	19.33	18.66	1.71	7.83	1.257	274
59.648	19.32	18.65	1.72	7.84	1.257	274
59.680	19.29	18.62	1.69	7.82	1.257	274
59.712	19.25	18.58	1.73	7.85	1.257	274
59.744	19.28	18.61	1.72	7.84	1.257	274
59.776	19.27	18.60	1.71	7.83	1.257	274
59.808	19.30	18.63	1.71	7.84	1.257	274
59.840	19.31	18.64	1.69	7.81	1.257	274
59.872	19.29	18.62	1.73	7.85	1.257	274
59.904	19.26	18.59	1.72	7.84	1.257	274
59.936	19.27	18.60	1.70	7.83	1.257	274
59.968	19.32	18.65	1.72	7.84	1.257	274
60.000	19.35	18.68	1.69	7.81	1.257	274
60.032	19.33	18.66	1.73	7.85	1.257	274
60.064	19.31	18.64	1.72	7.84	1.257	274
60.096	19.28	18.61	1.71	7.83	1.257	274
60.128	19.30	18.63	1.71	7.84	1.257	274
60.160	19.27	18.60	1.70	7.82	1.257	274
60.192	19.29	18.62	1.73	7.85	1.257	274
60.224	19.27	18.60	1.72	7.85	1.257	274
60.256	19.35	18.68	1.70	7.83	1.257	274
60.288	19.30	18.63	1.72	7.84	1.257	274
60.320	19.31	18.64	1.70	7.82	1.257	274
60.352	19.32	18.65	1.72	7.85	1.257	274
60.384	19.31	18.64	1.72	7.84	1.257	274
60.416	19.27	18.60	1.71	7.83	1.257	274
60.448	19.31	18.64	1.72	7.84	1.257	274
60.480	19.28	18.60	1.69	7.82	1.257	274
60.512	19.29	18.62	1.72	7.85	1.257	274
60.544	19.31	18.64	1.72	7.84	1.257	274
60.576	19.29	18.62	1.70	7.82	1.257	274
60.608	19.28	18.61	1.72	7.84	1.257	274
60.640	19.32	18.65	1.69	7.81	1.257	274
60.672	19.33	18.66	1.72	7.85	1.257	274
60.704	19.36	18.69	1.72	7.84	1.257	274
60.736	19.40	18.73	1.70	7.83	1.257	274
60.768	19.42	18.75	1.72	7.84	1.257	274
60.800	19.41	18.74	1.69	7.81	1.257	274
60.832	19.40	18.73	1.73	7.85	1.257	274
60.864	19.45	18.78	1.72	7.85	1.257	274
60.896	19.48	18.81	1.70	7.82	1.257	274
60.928	19.48	18.80	1.71	7.84	1.257	274
60.960	19.46	18.79	1.69	7.81	1.257	274
60.992	19.38	18.70	1.73	7.85	1.257	274
61.024	19.38	18.71	1.72	7.84	1.257	274
61.056	19.34	18.67	1.71	7.83	1.257	274
61.088	19.31	18.64	1.72	7.84	1.257	274
61.120	19.27	18.60	1.69	7.81	1.257	274
61.152	19.25	18.58	1.72	7.85	1.257	274
61.184	19.29	18.62	1.72	7.84	1.257	274
61.216	19.35	18.68	1.70	7.83	1.257	274
61.248	19.35	18.68	1.72	7.84	1.257	274
61.280	19.37	18.70	1.69	7.81	1.257	274
61.312	19.34	18.67	1.73	7.85	1.257	274
61.344	19.36	18.69	1.72	7.85	1.257	274
61.376	19.35	18.68	1.70	7.83	1.257	274
61.408	19.32	18.65	1.72	7.84	1.257	274
61.440	19.29	18.62	1.69	7.81	1.257	274
61.472	19.28	18.61	1.72	7.84	1.257	274
61.504	19.32	18.65	1.73	7.85	1.257	274
61.536	19.28	18.61	1.70	7.83	1.257	274
61.568	19.28	18.61	1.72	7.84	1.257	274
61.600	19.31	18.64	1.69	7.81	1.257	274
61.632	19.28	18.61	1.72	7.84	1.257	274
61.664	19.35	18.68	1.72	7.84	1.257	274
61.696	19.36	18.69	1.70	7.83	1.257	274
61.728	19.34	18.67	1.72	7.84	1.257	274
61.760	19.34	18.67	1.69	7.81	1.257	274
61.792	19.35	18.68	1.72	7.84	1.257	274
61.824	19.36	18.69	1.72	7.84	1.257	274
61.856	19.35	18.68	1.70	7.83	1.257	274
61.888	19.33	18.65	1.72	7.84	1.257	274
61.920	19.35	18.68	1.69	7.82	1.257	274
61.952	19.31	18.64	1.72	7.84	1.257	274
61.984	19.28	18.60	1.72	7.84	1.257	274
62.016	19.28	18.61	1.70	7.82	1.257	274
62.048	19.31	18.64	1.72	7.84	1.257	274
62.080	19.30	18.63	1.69	7.81	1.257	274
62.112	19.33	18.66	1.72	7.85	1.257	274
62.144	19.34	18.67	1.72	7.85	1.257	274
62.176	19.37	18.70	1.70	7.83	1.257	274
62.208	19.33	18.66	1.72	7.84	1.257	274
62.240	19.36	18.69	1.69	7.82	1.257	274
62.272	19.35	18.68	1.72	7.84	1.257	274
62.304	19.31	18.64	1.72	7.84	1.257	274
62.336	19.34	18.67	1.70	7.82	1.257	274
62.368	19.34	18.67	1.72	7.84	1.257	274
62.400	19.38	18.70	1.69	7.81	1.257	274
62.432	19.36	18.69	1.73	7.85	1.257	274
62.464	19.36	18.69	1.72	7.84	1.257	274
62.496	19.26	18.59	1.71	7.83	1.257	274
62.528	19.25	18.58	1.71	7.84	1.257	274
62.560	19.25	18.58	1.69	7.82	1.257	274
62.592	19.22	18.55	1.72	7.84	1.257	274
62.624	19.24	18.57	1.72	7.85	1.257	274
62.656	19.20	18.53	1.70	7.82	1.257	274
62.688	19.25	18.58	1.71	7.83	1.257	274
62.720	18.80	18.13	1.69	7.81	1.257	274
62.752	9.82	9.15	1.72	7.84	1.257	274
62.784	-1.17	-1.84	-0.61	5.52	1.257	274
62.816	-2.82	-3.49	0.86	6.98	1.257	274
62.848	-1.15	-1.82	1.70	7.82	1.257	274
62.880	2.75	2.08	1.69	7.82	1.257	274
62.912	5.30	4.63	1.73	7.85	1.257	274
62.944	4.17	3.50	1.72	7.84	1.257	274
62.976	1.92	1.25	1.71	7.83	0.725	158
63.008	0.49	-0.18	1.70	7.82	0.725	158
63.040	0.74	0.07	1.68	7.80	0.725	158
63.072	2.05	1.38	1.72	7.84	0.725	158
63.104	3.05	2.38	1.71	7.83	0.725	158
63.136	2.93	2.26	1.70	7.82	0.725	158
63.168	2.15	1.48	1.70	7.83	0.725	158
63.200	1.47	0.80	1.69	7.81	0.725	158
63.232	1.43	0.75	1.71	7.83	0.725	158
63.264	1.86	1.19	1.71	7.83	0.725	158
63.296	2.33	1.66	1.70	7.82	0.725	158
63.328	2.42	1.75	1.70	7.83	0.725	158
63.360	2.18	1.51	1.68	7.80	0.725	158
63.392	1.85	1.18	1.72	7.84	0.725	158
63.424	1.75	1.08	1.71	7.83	0.725	158
63.456	1.87	1.20	1.70	7.82	0.000	0
63.488	2.08	1.40	1.71	7.83	0.000	0
63.520	2.17	1.50	1.68	7.80	0.000	0
63.552	2.14	1.47	1.72	7.84	0.000	0
63.584	2.05	1.38	1.71	7.83	0.000	0
63.616	2.03	1.35	1.70	7.82	0.000	0
63.648	2.06	1.39	1.71	7.83	0.000	0
63.680	2.06	1.39	1.68	7.80	0.000	0
63.712	2.05	1.38	1.72	7.84	0.000	0
63.744	2.03	1.36	1.71	7.84	0.000	0
63.776	2.02	1.35	1.69	7.82	0.000	0
63.808	2.02	1.35	1.71	7.83	0.000	0
63.840	2.04	1.37	1.68	7.80	0.000	0
63.872	2.03	1.35	1.72	7.84	0.000	0
63.904	2.02	1.35	1.71	7.83	0.000	0
63.936	2.02	1.35	1.70	7.82	0.000	0
63.968	2.03	1.36	1.70	7.83	0.000	0
64.000	2.02	1.35	1.69	7.81	0.000	0
64.032	2.03	1.36	1.72	7.84	0.000	0
64.064	2.00	1.33	1.71	7.83	0.000	0
64.096	2.00	1.33	1.70	7.83	0.000	0
64.128	1.98	1.31	1.70	7.83	0.000	0
