Tempo(s)    P0(KPa) P0+Coluna(KPa)  P1(KPa) P1+Coluna(KPa)
0.032	-2.22	-2.22	-2.22	-2.22
0.064	7.28	7.28	-2.22	-2.22
0.096	7.28	7.28	7.51	7.51
0.128	7.28	7.28	7.51	7.51
0.160	7.29	7.29	7.51	7.51
0.192	7.29	7.29	7.48	7.48
0.224	7.29	7.29	7.48	7.48
0.256	7.29	7.29	7.48	7.48
0.288	7.29	7.29	7.51	7.51
0.320	7.29	7.29	7.51	7.51
0.352	7.29	7.29	7.51	7.51
0.384	7.29	7.29	7.50	7.50
0.416	7.29	7.29	7.50	7.50
0.448	7.29	7.29	7.50	7.50
0.480	7.29	7.29	7.49	7.49
0.512	7.29	7.29	7.49	7.49
0.544	7.29	7.29	7.49	7.49
0.576	7.29	7.29	7.51	7.51
0.608	7.29	7.29	7.51	7.51
0.640	7.29	7.29	7.51	7.51
0.672	0.00	7.29	-0.03	7.48
0.704	0.00	7.29	-0.03	7.48
0.736	0.00	7.29	-0.03	7.48
0.768	0.00	7.29	-0.00	7.51
0.800	0.00	7.29	-0.00	7.51
0.832	0.00	7.29	-0.00	7.51
0.864	0.00	7.29	-0.01	7.50
0.896	0.00	7.29	-0.01	7.50
0.928	0.00	7.29	-0.01	7.50
0.960	0.00	7.29	-0.02	7.49
0.992	0.00	7.29	-0.02	7.49
1.024	0.00	7.29	-0.02	7.49
1.056	0.00	7.29	0.00	7.51
1.088	0.00	7.29	0.00	7.51
1.120	0.00	7.29	0.00	7.51
1.152	0.00	7.29	0.01	7.52
1.184	0.00	7.29	0.01	7.52
1.216	0.00	7.29	0.01	7.52
1.248	0.00	7.29	-0.03	7.48
1.280	0.00	7.29	-0.03	7.48
1.312	0.00	7.29	-0.03	7.48
1.344	0.00	7.29	0.06	7.57
1.376	0.00	7.29	0.06	7.57
1.408	0.00	7.29	0.06	7.57
1.440	0.00	7.29	-0.04	7.47
1.472	0.00	7.29	-0.04	7.47
1.504	0.00	7.29	-0.04	7.47
1.536	0.00	7.29	0.04	7.55
1.568	0.00	7.29	0.04	7.55
1.600	0.00	7.29	0.04	7.55
1.632	0.00	7.29	0.01	7.52
1.664	0.00	7.29	0.01	7.52
1.696	0.00	7.29	0.01	7.52
1.728	0.00	7.29	-0.03	7.48
1.760	0.00	7.29	-0.03	7.48
1.792	0.00	7.29	-0.03	7.48
1.824	0.00	7.29	0.06	7.57
1.856	0.00	7.29	0.06	7.57
1.888	0.00	7.29	0.06	7.57
1.920	0.00	7.29	-0.04	7.47
1.952	0.00	7.29	-0.04	7.47
1.984	0.00	7.29	-0.04	7.47
2.016	0.00	7.29	0.04	7.55
2.048	0.00	7.29	0.04	7.55
2.080	0.00	7.29	0.04	7.55
2.112	0.00	7.29	0.01	7.52
2.144	0.00	7.29	0.01	7.52
2.176	0.00	7.29	0.01	7.52
2.208	0.00	7.29	-0.03	7.48
2.240	0.00	7.29	-0.03	7.48
2.272	0.00	7.29	-0.03	7.48
2.304	0.00	7.29	0.06	7.57
2.336	0.00	7.29	0.06	7.57
2.368	0.00	7.29	0.06	7.57
2.400	0.00	7.29	-0.04	7.47
2.432	0.00	7.29	-0.04	7.47
2.464	0.00	7.29	-0.04	7.47
2.496	0.00	7.29	0.04	7.55
2.528	0.00	7.29	0.04	7.55
2.560	0.00	7.29	0.04	7.55
2.592	0.00	7.29	0.01	7.52
2.624	0.00	7.29	0.01	7.52
2.656	0.00	7.29	0.01	7.52
2.688	0.00	7.29	-0.03	7.48
2.720	0.00	7.29	-0.03	7.48
2.752	0.00	7.29	-0.03	7.48
2.784	0.00	7.29	0.06	7.57
2.816	0.00	7.29	0.06	7.57
2.848	-0.00	7.29	0.06	7.57
2.880	-0.00	7.29	-0.04	7.47
2.912	-0.00	7.29	-0.04	7.47
2.944	0.00	7.29	-0.04	7.47
2.976	0.00	7.29	0.04	7.55
3.008	0.00	7.29	0.04	7.55
3.040	-0.00	7.29	0.04	7.55
3.072	-0.00	7.29	0.01	7.52
3.104	-0.00	7.29	0.01	7.52
3.136	0.00	7.29	0.01	7.52
3.168	0.00	7.29	-0.03	7.48
3.200	0.00	7.29	-0.03	7.48
3.232	0.00	7.29	-0.03	7.48
3.264	0.00	7.29	0.05	7.56
3.296	0.00	7.29	0.05	7.56
3.328	0.00	7.29	0.05	7.56
3.360	0.00	7.29	-0.03	7.48
3.392	0.00	7.29	-0.03	7.48
3.424	0.00	7.29	-0.03	7.48
3.456	0.00	7.29	0.04	7.55
3.488	0.00	7.29	0.04	7.55
3.520	0.00	7.29	0.04	7.55
3.552	0.00	7.29	0.01	7.52
3.584	0.00	7.29	0.01	7.52
3.616	0.00	7.29	0.01	7.52
3.648	0.00	7.29	-0.03	7.48
3.680	0.00	7.29	-0.03	7.48
3.712	-0.00	7.29	-0.03	7.48
3.744	-0.00	7.29	0.06	7.57
3.776	-0.00	7.29	0.06	7.57
3.808	0.00	7.29	0.06	7.57
3.840	0.00	7.29	-0.04	7.47
3.872	0.00	7.29	-0.04	7.47
3.904	-0.00	7.29	-0.04	7.47
3.936	-0.00	7.29	0.04	7.55
3.968	-0.00	7.29	0.04	7.55
4.000	-0.00	7.29	0.04	7.55
4.032	-0.00	7.29	0.01	7.52
4.064	-0.00	7.29	0.01	7.52
4.096	0.00	7.29	0.01	7.52
4.128	0.00	7.29	-0.03	7.48
4.160	0.00	7.29	-0.03	7.48
4.192	-0.00	7.29	-0.03	7.48
4.224	-0.00	7.29	0.06	7.57
4.256	-0.00	7.29	0.06	7.57
4.288	0.00	7.29	0.06	7.57
4.320	0.00	7.29	-0.04	7.47
4.352	0.00	7.29	-0.04	7.47
4.384	-0.00	7.29	-0.04	7.47
4.416	-0.00	7.29	0.04	7.54
4.448	-0.00	7.29	0.04	7.54
4.480	-0.00	7.28	0.04	7.54
4.512	-0.00	7.28	0.01	7.52
4.544	-0.00	7.28	0.01	7.52
4.576	0.00	7.29	0.01	7.52
4.608	0.00	7.29	-0.03	7.48
4.640	0.00	7.29	-0.03	7.48
4.672	-0.00	7.29	-0.03	7.48
4.704	-0.00	7.29	0.06	7.57
4.736	-0.00	7.29	0.06	7.57
4.768	-0.01	7.28	0.06	7.57
4.800	-0.01	7.28	-0.04	7.47
4.832	-0.01	7.28	-0.04	7.47
4.864	-0.00	7.29	-0.04	7.47
4.896	-0.00	7.29	0.04	7.55
4.928	-0.00	7.29	0.04	7.55
4.960	8.40	15.69	0.04	7.55
4.992	8.40	15.69	0.01	7.52
5.024	8.40	15.69	0.01	7.52
5.056	18.66	25.95	0.01	7.52
5.088	18.66	25.95	-0.03	7.48
5.120	18.66	25.95	-0.03	7.48
5.152	20.60	27.88	-0.03	7.48
5.184	20.60	27.88	0.06	7.57
5.216	20.60	27.88	0.06	7.57
5.248	21.60	28.89	0.06	7.57
5.280	21.60	28.89	-0.03	7.48
5.312	21.60	28.89	-0.03	7.48
5.344	22.03	29.32	-0.03	7.48
5.376	22.03	29.32	0.04	7.55
5.408	22.03	29.32	0.04	7.55
5.440	22.04	29.33	0.04	7.55
5.472	22.04	29.33	0.02	7.53
5.504	22.04	29.33	0.02	7.53
5.536	22.20	29.49	0.02	7.53
5.568	22.20	29.49	-0.03	7.48
5.600	22.20	29.49	-0.03	7.48
5.632	22.30	29.59	-0.03	7.48
5.664	22.30	29.59	0.06	7.57
5.696	22.30	29.59	0.06	7.57
5.728	22.41	29.69	0.06	7.57
5.760	22.41	29.69	-0.03	7.48
5.792	22.41	29.69	-0.03	7.48
5.824	22.41	29.70	-0.03	7.48
5.856	22.41	29.70	0.04	7.55
5.888	22.41	29.70	0.04	7.55
5.920	22.48	29.77	0.04	7.55
5.952	22.48	29.77	0.02	7.53
5.984	22.48	29.77	0.02	7.53
6.016	22.44	29.73	0.02	7.53
6.048	22.44	29.73	-0.03	7.48
6.080	22.44	29.73	-0.03	7.48
6.112	22.45	29.74	-0.03	7.48
6.144	22.45	29.74	0.06	7.57
6.176	22.45	29.74	0.06	7.57
6.208	22.45	29.74	0.06	7.57
6.240	22.45	29.74	-0.03	7.48
6.272	22.45	29.74	-0.03	7.48
6.304	22.49	29.78	-0.03	7.48
6.336	22.49	29.78	0.04	7.55
6.368	22.49	29.78	0.04	7.55
6.400	22.50	29.79	0.04	7.55
6.432	22.50	29.79	0.02	7.53
6.464	22.50	29.79	0.02	7.53
6.496	22.54	29.83	0.02	7.53
6.528	22.54	29.83	-0.03	7.48
6.560	22.54	29.83	-0.03	7.48
6.592	22.56	29.85	-0.03	7.48
6.624	22.56	29.85	0.06	7.57
6.656	22.56	29.85	0.06	7.57
6.688	22.60	29.89	0.06	7.57
6.720	22.60	29.89	-0.03	7.48
6.752	22.60	29.89	-0.03	7.48
6.784	22.61	29.89	-0.03	7.48
6.816	22.61	29.89	0.04	7.55
6.848	22.61	29.89	0.04	7.55
6.880	22.59	29.88	0.04	7.55
6.912	22.59	29.88	0.02	7.53
6.944	22.59	29.88	0.02	7.53
6.976	22.57	29.86	0.02	7.53
7.008	22.57	29.86	-0.03	7.48
7.040	22.57	29.86	-0.03	7.48
7.072	22.57	29.85	-0.03	7.48
7.104	22.57	29.85	0.06	7.57
7.136	22.57	29.85	0.06	7.57
7.168	22.56	29.85	0.06	7.57
7.200	22.56	29.85	-0.03	7.48
7.232	22.56	29.85	-0.03	7.48
7.264	22.61	29.90	-0.03	7.48
7.296	22.61	29.90	0.03	7.54
7.328	22.61	29.90	0.03	7.54
7.360	22.58	29.87	0.03	7.54
7.392	22.58	29.87	0.03	7.54
7.424	22.58	29.87	0.03	7.54
7.456	22.60	29.89	0.03	7.54
7.488	22.60	29.89	-0.03	7.48
7.520	22.60	29.89	-0.03	7.48
7.552	22.58	29.87	-0.03	7.48
7.584	22.58	29.87	0.06	7.57
7.616	22.58	29.87	0.06	7.57
7.648	22.59	29.88	0.06	7.57
7.680	22.59	29.88	-0.03	7.48
7.712	22.59	29.88	-0.03	7.48
7.744	22.59	29.88	-0.03	7.48
7.776	22.59	29.88	0.03	7.54
7.808	22.59	29.88	0.03	7.54
7.840	22.57	29.86	0.03	7.54
7.872	22.57	29.86	0.03	7.54
7.904	22.57	29.86	0.03	7.54
7.936	22.55	29.84	0.03	7.54
7.968	22.55	29.84	-0.04	7.47
8.000	22.55	29.84	-0.04	7.47
8.032	22.57	29.86	-0.04	7.47
8.064	22.57	29.86	0.06	7.57
8.096	22.57	29.86	0.06	7.57
8.128	22.58	29.87	0.06	7.57
8.160	22.58	29.87	-0.03	7.48
8.192	22.58	29.87	-0.03	7.48
8.224	22.57	29.86	-0.03	7.48
8.256	22.57	29.86	0.03	7.54
8.288	22.57	29.86	0.03	7.54
8.320	22.58	29.87	0.03	7.54
8.352	22.58	29.87	0.04	7.55
8.384	22.58	29.87	0.04	7.55
8.416	22.57	29.86	0.04	7.55
8.448	22.57	29.86	-0.04	7.47
8.480	22.57	29.86	-0.04	7.47
8.512	22.59	29.88	-0.04	7.47
8.544	22.59	29.88	0.06	7.57
8.576	22.59	29.88	0.06	7.57
8.608	22.61	29.89	0.06	7.57
8.640	22.61	29.89	-0.03	7.48
8.672	22.61	29.89	-0.03	7.48
8.704	22.58	29.87	-0.03	7.48
8.736	22.58	29.87	0.03	7.54
8.768	22.58	29.87	0.03	7.54
8.800	22.60	29.88	0.03	7.54
8.832	22.60	29.88	0.04	7.55
8.864	22.60	29.88	0.04	7.55
8.896	22.53	29.82	0.04	7.55
8.928	22.53	29.82	-0.04	7.47
8.960	22.53	29.82	-0.04	7.47
8.992	22.61	29.89	-0.04	7.47
9.024	22.61	29.89	0.06	7.57
9.056	22.61	29.89	0.06	7.57
9.088	22.62	29.91	0.06	7.57
9.120	22.62	29.91	-0.03	7.48
9.152	22.62	29.91	-0.03	7.48
9.184	22.60	29.89	-0.03	7.48
9.216	22.60	29.89	0.02	7.53
9.248	22.60	29.89	0.02	7.53
9.280	22.62	29.91	0.02	7.53
9.312	22.62	29.91	0.04	7.55
9.344	22.62	29.91	0.04	7.55
9.376	22.59	29.88	0.04	7.55
9.408	22.59	29.88	-0.04	7.47
9.440	22.59	29.88	-0.04	7.47
9.472	22.60	29.89	-0.04	7.47
9.504	22.60	29.89	0.06	7.57
9.536	22.60	29.89	0.06	7.57
9.568	22.65	29.94	0.06	7.57
9.600	22.65	29.94	-0.03	7.48
9.632	22.65	29.94	-0.03	7.48
9.664	22.61	29.89	-0.03	7.48
9.696	22.61	29.89	0.01	7.52
9.728	22.61	29.89	0.01	7.52
9.760	22.62	29.91	0.01	7.52
9.792	22.62	29.91	0.04	7.55
9.824	22.62	29.91	0.04	7.55
9.856	22.61	29.90	0.04	7.55
9.888	22.61	29.90	-0.04	7.47
9.920	22.61	29.90	-0.04	7.47
9.952	22.63	29.91	-0.04	7.47
9.984	22.63	29.91	0.05	7.56
10.016	22.63	29.91	0.05	7.56
10.048	22.63	29.92	0.05	7.56
10.080	22.63	29.92	-0.03	7.48
10.112	22.63	29.92	-0.03	7.48
10.144	22.63	29.91	-0.03	7.48
10.176	22.63	29.91	0.01	7.52
10.208	22.63	29.91	0.01	7.52
10.240	22.62	29.91	0.01	7.52
10.272	22.62	29.91	0.04	7.55
10.304	22.62	29.91	0.04	7.55
10.336	22.63	29.91	0.04	7.55
10.368	22.63	29.91	-0.04	7.47
10.400	22.63	29.91	-0.04	7.47
10.432	22.67	29.96	-0.04	7.47
10.464	22.67	29.96	0.05	7.56
10.496	22.67	29.96	0.05	7.56
10.528	22.65	29.93	0.05	7.56
10.560	22.65	29.93	-0.03	7.48
10.592	22.65	29.93	-0.03	7.48
10.624	22.65	29.94	-0.03	7.48
10.656	22.65	29.94	0.01	7.52
10.688	22.65	29.94	0.01	7.52
10.720	22.64	29.93	0.01	7.52
10.752	22.64	29.93	0.05	7.55
10.784	22.64	29.93	0.05	7.55
10.816	22.66	29.94	0.05	7.55
10.848	22.66	29.94	-0.05	7.46
10.880	22.66	29.94	-0.05	7.46
10.912	22.66	29.95	-0.05	7.46
10.944	22.66	29.95	0.05	7.56
10.976	22.66	29.95	0.05	7.56
11.008	22.66	29.95	0.05	7.56
11.040	22.66	29.95	-0.03	7.48
11.072	22.66	29.95	-0.03	7.48
11.104	22.63	29.92	-0.03	7.48
11.136	22.63	29.92	0.00	7.51
11.168	22.63	29.92	0.00	7.51
11.200	22.65	29.94	0.00	7.51
11.232	22.65	29.94	0.05	7.55
11.264	22.65	29.94	0.05	7.55
11.296	22.65	29.94	0.05	7.55
11.328	22.65	29.94	-0.05	7.46
11.360	22.65	29.94	-0.05	7.46
11.392	22.64	29.93	-0.05	7.46
11.424	22.64	29.93	0.05	7.56
11.456	22.64	29.93	0.05	7.56
11.488	22.65	29.94	0.05	7.56
11.520	22.65	29.94	-0.02	7.49
11.552	22.65	29.94	-0.02	7.49
11.584	22.63	29.92	-0.02	7.49
11.616	22.63	29.92	-0.01	7.50
11.648	22.63	29.92	-0.01	7.50
11.680	22.64	29.93	-0.01	7.50
11.712	22.64	29.93	0.05	7.56
11.744	22.64	29.93	0.05	7.56
11.776	22.64	29.93	0.05	7.56
11.808	22.64	29.93	-0.05	7.46
11.840	22.64	29.93	-0.05	7.46
11.872	22.66	29.95	-0.05	7.46
11.904	22.66	29.95	0.04	7.55
11.936	22.66	29.95	0.04	7.55
11.968	22.67	29.95	0.04	7.55
12.000	22.67	29.95	-0.02	7.49
12.032	22.67	29.95	-0.02	7.49
12.064	22.65	29.94	-0.02	7.49
12.096	22.65	29.94	-0.01	7.50
12.128	22.65	29.94	-0.01	7.50
12.160	22.66	29.95	-0.01	7.50
12.192	22.66	29.95	0.05	7.56
12.224	22.66	29.95	0.05	7.56
12.256	22.66	29.95	0.05	7.56
12.288	22.66	29.95	-0.05	7.46
12.320	22.66	29.95	-0.05	7.46
12.352	22.66	29.95	-0.05	7.46
12.384	22.66	29.95	0.05	7.56
12.416	22.66	29.95	0.05	7.56
12.448	22.64	29.93	0.05	7.56
12.480	22.64	29.93	-0.02	7.49
12.512	22.64	29.93	-0.02	7.49
12.544	22.64	29.93	-0.02	7.49
12.576	22.64	29.93	-0.02	7.49
12.608	22.64	29.93	-0.02	7.49
12.640	22.64	29.93	-0.02	7.49
12.672	22.64	29.93	0.05	7.56
12.704	22.64	29.93	0.05	7.56
12.736	22.65	29.93	0.05	7.56
12.768	22.65	29.93	-0.04	7.47
12.800	22.65	29.93	-0.04	7.47
12.832	22.65	29.94	-0.04	7.47
12.864	22.65	29.94	0.04	7.55
12.896	22.65	29.94	0.04	7.55
12.928	22.63	29.92	0.04	7.55
12.960	22.63	29.92	-0.01	7.49
12.992	22.63	29.92	-0.01	7.49
13.024	22.65	29.93	-0.01	7.49
13.056	22.65	29.93	-0.02	7.49
13.088	22.65	29.93	-0.02	7.49
13.120	22.65	29.94	-0.02	7.49
13.152	22.65	29.94	0.05	7.56
13.184	22.65	29.94	0.05	7.56
13.216	22.67	29.95	0.05	7.56
13.248	22.67	29.95	-0.04	7.47
13.280	22.67	29.95	-0.04	7.47
13.312	22.67	29.95	-0.04	7.47
13.344	22.67	29.95	0.04	7.55
13.376	22.67	29.95	0.04	7.55
13.408	22.63	29.92	0.04	7.55
13.440	22.63	29.92	-0.00	7.50
13.472	22.63	29.92	-0.00	7.50
13.504	22.65	29.94	-0.00	7.50
13.536	22.65	29.94	-0.02	7.49
13.568	22.65	29.94	-0.02	7.49
13.600	22.65	29.94	-0.02	7.49
13.632	22.65	29.94	0.05	7.56
13.664	22.65	29.94	0.05	7.56
13.696	22.65	29.94	0.05	7.56
13.728	22.65	29.94	-0.04	7.47
13.760	22.65	29.94	-0.04	7.47
13.792	22.66	29.95	-0.04	7.47
13.824	22.66	29.95	0.05	7.55
13.856	22.66	29.95	0.05	7.55
13.888	22.63	29.92	0.05	7.55
13.920	22.63	29.92	0.00	7.51
13.952	22.63	29.92	0.00	7.51
13.984	22.67	29.96	0.00	7.51
14.016	22.67	29.96	-0.03	7.48
14.048	22.67	29.96	-0.03	7.48
14.080	22.66	29.95	-0.03	7.48
14.112	22.66	29.95	0.06	7.57
14.144	22.66	29.95	0.06	7.57
14.176	22.68	29.97	0.06	7.57
14.208	22.68	29.97	-0.04	7.47
14.240	22.68	29.97	-0.04	7.47
14.272	22.64	29.93	-0.04	7.47
14.304	22.64	29.93	0.04	7.55
14.336	22.64	29.93	0.04	7.55
14.368	22.64	29.93	0.04	7.55
14.400	22.64	29.93	0.01	7.52
14.432	22.64	29.93	0.01	7.52
14.464	22.63	29.91	0.01	7.52
14.496	22.63	29.91	-0.03	7.48
14.528	22.63	29.91	-0.03	7.48
14.560	22.67	29.96	-0.03	7.48
14.592	22.67	29.96	0.06	7.57
14.624	22.67	29.96	0.06	7.57
14.656	22.67	29.95	0.06	7.57
14.688	22.67	29.95	-0.03	7.48
14.720	22.67	29.95	-0.03	7.48
14.752	22.66	29.95	-0.03	7.48
14.784	22.66	29.95	0.04	7.55
14.816	22.66	29.95	0.04	7.55
14.848	22.66	29.95	0.04	7.55
14.880	22.66	29.95	0.02	7.53
14.912	22.66	29.95	0.02	7.53
14.944	22.64	29.93	0.02	7.53
14.976	22.64	29.93	-0.03	7.48
15.008	22.64	29.93	-0.03	7.48
15.040	22.69	29.97	-0.03	7.48
15.072	22.69	29.97	0.06	7.57
15.104	22.69	29.97	0.06	7.57
15.136	22.69	29.97	0.06	7.57
15.168	22.69	29.97	-0.03	7.48
15.200	22.69	29.97	-0.03	7.48
15.232	22.66	29.95	-0.03	7.48
15.264	22.66	29.95	0.04	7.54
15.296	22.66	29.95	0.04	7.54
15.328	22.65	29.94	0.04	7.54
15.360	22.65	29.94	0.03	7.54
15.392	22.65	29.94	0.03	7.54
15.424	22.66	29.94	0.03	7.54
15.456	22.66	29.94	-0.03	7.48
15.488	22.66	29.94	-0.03	7.48
15.520	22.67	29.96	-0.03	7.48
15.552	22.67	29.96	0.06	7.57
15.584	22.67	29.96	0.06	7.57
15.616	22.68	29.97	0.06	7.57
15.648	22.68	29.97	-0.03	7.48
15.680	22.68	29.97	-0.03	7.48
15.712	22.67	29.95	-0.03	7.48
15.744	22.67	29.95	0.03	7.54
15.776	22.67	29.95	0.03	7.54
15.808	22.69	29.97	0.03	7.54
15.840	22.69	29.97	0.04	7.55
15.872	22.69	29.97	0.04	7.55
15.904	22.68	29.97	0.04	7.55
15.936	22.68	29.97	-0.04	7.47
15.968	22.68	29.97	-0.04	7.47
16.000	22.72	30.01	-0.04	7.47
16.032	22.72	30.01	0.06	7.57
16.064	22.72	30.01	0.06	7.57
16.096	22.69	29.98	0.06	7.57
16.128	22.69	29.98	-0.03	7.48
16.160	22.69	29.98	-0.03	7.48
16.192	22.68	29.97	-0.03	7.48
16.224	22.68	29.97	0.01	7.52
16.256	22.68	29.97	0.01	7.52
16.288	22.66	29.95	0.01	7.52
16.320	22.66	29.95	0.04	7.55
16.352	22.66	29.95	0.04	7.55
16.384	22.68	29.97	0.04	7.55
16.416	22.68	29.97	-0.04	7.47
16.448	22.68	29.97	-0.04	7.47
16.480	22.71	30.00	-0.04	7.47
16.512	22.71	30.00	0.05	7.56
16.544	22.71	30.00	0.05	7.56
16.576	22.71	30.00	0.05	7.56
16.608	22.71	30.00	-0.02	7.49
16.640	22.71	30.00	-0.02	7.49
16.672	22.70	29.98	-0.02	7.49
16.704	22.70	29.98	0.00	7.51
16.736	22.70	29.98	0.00	7.51
16.768	22.72	30.01	0.00	7.51
16.800	22.72	30.01	0.05	7.56
16.832	22.72	30.01	0.05	7.56
16.864	22.73	30.02	0.05	7.56
16.896	22.73	30.02	-0.04	7.47
16.928	22.73	30.02	-0.04	7.47
16.960	22.74	30.02	-0.04	7.47
16.992	22.74	30.02	0.05	7.56
17.024	22.74	30.02	0.05	7.56
17.056	22.72	30.01	0.05	7.56
17.088	22.72	30.01	-0.02	7.49
17.120	22.72	30.01	-0.02	7.49
17.152	22.68	29.97	-0.02	7.49
17.184	22.68	29.97	-0.01	7.50
17.216	22.68	29.97	-0.01	7.50
17.248	22.67	29.96	-0.01	7.50
17.280	22.67	29.96	0.05	7.56
17.312	22.67	29.96	0.05	7.56
17.344	22.71	30.00	0.05	7.56
17.376	22.71	30.00	-0.05	7.46
17.408	22.71	30.00	-0.05	7.46
17.440	22.70	29.99	-0.05	7.46
17.472	22.70	29.99	0.05	7.55
17.504	22.70	29.99	0.05	7.55
17.536	22.71	30.00	0.05	7.55
17.568	22.71	30.00	-0.01	7.50
17.600	22.71	30.00	-0.01	7.50
17.632	22.70	29.99	-0.01	7.50
17.664	22.70	29.99	-0.01	7.49
17.696	22.70	29.99	-0.01	7.49
17.728	22.71	30.00	-0.01	7.49
17.760	22.71	30.00	0.05	7.56
17.792	22.71	30.00	0.05	7.56
17.824	22.73	30.02	0.05	7.56
17.856	22.73	30.02	-0.04	7.47
17.888	22.73	30.02	-0.04	7.47
17.920	22.72	30.01	-0.04	7.47
17.952	22.72	30.01	0.05	7.55
17.984	22.72	30.01	0.05	7.55
18.016	22.70	29.99	0.05	7.55
18.048	22.70	29.99	-0.00	7.51
18.080	22.70	29.99	-0.00	7.51
18.112	22.70	29.99	-0.00	7.51
18.144	22.70	29.99	-0.02	7.49
18.176	22.70	29.99	-0.02	7.49
18.208	22.67	29.95	-0.02	7.49
18.240	22.67	29.95	0.06	7.57
18.272	22.67	29.95	0.06	7.57
18.304	22.73	30.02	0.06	7.57
18.336	22.73	30.02	-0.04	7.47
18.368	22.73	30.02	-0.04	7.47
18.400	22.73	30.01	-0.04	7.47
18.432	22.73	30.01	0.05	7.55
18.464	22.73	30.01	0.05	7.55
18.496	22.70	29.99	0.05	7.55
18.528	22.70	29.99	0.01	7.52
18.560	22.70	29.99	0.01	7.52
18.592	22.71	30.00	0.01	7.52
18.624	22.71	30.00	-0.02	7.48
18.656	22.71	30.00	-0.02	7.48
18.688	22.70	29.99	-0.02	7.48
18.720	22.70	29.99	0.06	7.57
18.752	22.70	29.99	0.06	7.57
18.784	22.73	30.02	0.06	7.57
18.816	22.73	30.02	-0.03	7.48
18.848	22.73	30.02	-0.03	7.48
18.880	22.72	30.01	-0.03	7.48
18.912	22.72	30.01	0.04	7.55
18.944	22.72	30.01	0.04	7.55
18.976	22.71	30.00	0.04	7.55
19.008	22.71	30.00	0.02	7.53
19.040	22.71	30.00	0.02	7.53
19.072	22.69	29.98	0.02	7.53
19.104	22.69	29.98	-0.03	7.48
19.136	22.69	29.98	-0.03	7.48
19.168	22.72	30.00	-0.03	7.48
19.200	22.72	30.00	0.06	7.57
19.232	22.72	30.00	0.06	7.57
19.264	22.73	30.02	0.06	7.57
19.296	22.73	30.02	-0.03	7.48
19.328	22.73	30.02	-0.03	7.48
19.360	22.71	30.00	-0.03	7.48
19.392	22.71	30.00	0.03	7.54
19.424	22.71	30.00	0.03	7.54
19.456	22.72	30.01	0.03	7.54
19.488	22.72	30.01	0.04	7.55
19.520	22.72	30.01	0.04	7.55
19.552	22.71	30.00	0.04	7.55
19.584	22.71	30.00	-0.04	7.47
19.616	22.71	30.00	-0.04	7.47
19.648	22.74	30.02	-0.04	7.47
19.680	22.74	30.02	0.06	7.57
19.712	22.74	30.02	0.06	7.57
19.744	22.73	30.02	0.06	7.57
19.776	22.73	30.02	-0.03	7.48
19.808	22.73	30.02	-0.03	7.48
19.840	22.69	29.98	-0.03	7.48
19.872	22.69	29.98	0.01	7.52
19.904	22.69	29.98	0.01	7.52
19.936	22.71	30.00	0.01	7.52
19.968	22.71	30.00	0.04	7.55
20.000	22.71	30.00	0.04	7.55
20.032	22.70	29.99	0.04	7.55
20.064	22.70	29.99	-0.05	7.46
20.096	22.70	29.99	-0.05	7.46
20.128	22.73	30.02	-0.05	7.46
20.160	22.73	30.02	0.05	7.56
20.192	22.73	30.02	0.05	7.56
20.224	22.73	30.01	0.05	7.56
20.256	22.73	30.01	-0.02	7.49
20.288	22.73	30.01	-0.02	7.49
20.320	22.72	30.01	-0.02	7.49
20.352	22.72	30.01	-0.00	7.51
20.384	22.72	30.01	-0.00	7.51
20.416	22.72	30.01	-0.00	7.51
20.448	22.72	30.01	0.05	7.56
20.480	22.72	30.01	0.05	7.56
20.512	22.71	30.00	0.05	7.56
20.544	22.71	30.00	-0.04	7.47
20.576	22.71	30.00	-0.04	7.47
20.608	22.74	30.03	-0.04	7.47
20.640	22.74	30.03	0.05	7.55
20.672	22.74	30.03	0.05	7.55
20.704	22.72	30.01	0.05	7.55
20.736	22.72	30.01	-0.01	7.49
20.768	22.72	30.01	-0.01	7.49
20.800	22.72	30.01	-0.01	7.49
20.832	22.72	30.01	-0.01	7.49
20.864	22.72	30.01	-0.01	7.49
20.896	22.69	29.98	-0.01	7.49
20.928	22.69	29.98	0.05	7.56
20.960	22.69	29.98	0.05	7.56
20.992	22.70	29.99	0.05	7.56
21.024	22.70	29.99	-0.04	7.47
21.056	22.70	29.99	-0.04	7.47
21.088	22.76	30.05	-0.04	7.47
21.120	22.76	30.05	0.05	7.55
21.152	22.76	30.05	0.05	7.55
21.184	22.74	30.03	0.05	7.55
21.216	22.74	30.03	0.00	7.51
21.248	22.74	30.03	0.00	7.51
21.280	22.74	30.03	0.00	7.51
21.312	22.74	30.03	-0.02	7.48
21.344	22.74	30.03	-0.02	7.48
21.376	22.74	30.03	-0.02	7.48
21.408	22.74	30.03	0.06	7.57
21.440	22.74	30.03	0.06	7.57
21.472	22.72	30.01	0.06	7.57
21.504	22.72	30.01	-0.04	7.47
21.536	22.72	30.01	-0.04	7.47
21.568	22.75	30.04	-0.04	7.47
21.600	22.75	30.04	0.04	7.55
21.632	22.75	30.04	0.04	7.55
21.664	22.75	30.04	0.04	7.55
21.696	22.75	30.04	0.01	7.52
21.728	22.75	30.04	0.01	7.52
21.760	22.70	29.99	0.01	7.52
21.792	22.70	29.99	-0.03	7.48
21.824	22.70	29.99	-0.03	7.48
21.856	22.71	30.00	-0.03	7.48
21.888	22.71	30.00	0.06	7.57
21.920	22.71	30.00	0.06	7.57
21.952	22.70	29.99	0.06	7.57
21.984	22.70	29.99	-0.03	7.48
22.016	22.70	29.99	-0.03	7.48
22.048	22.74	30.03	-0.03	7.48
22.080	22.74	30.03	0.04	7.55
22.112	22.74	30.03	0.04	7.55
22.144	22.75	30.03	0.04	7.55
22.176	22.75	30.03	0.03	7.54
22.208	22.75	30.03	0.03	7.54
22.240	22.72	30.00	0.03	7.54
22.272	22.72	30.00	-0.03	7.48
22.304	22.72	30.00	-0.03	7.48
22.336	22.77	30.06	-0.03	7.48
22.368	22.77	30.06	0.06	7.57
22.400	22.77	30.06	0.06	7.57
22.432	22.75	30.04	0.06	7.57
22.464	22.75	30.04	-0.03	7.48
22.496	22.75	30.04	-0.03	7.48
22.528	22.80	30.08	-0.03	7.48
22.560	22.80	30.08	0.02	7.53
22.592	22.80	30.08	0.02	7.53
22.624	22.78	30.06	0.02	7.53
22.656	22.78	30.06	0.04	7.55
22.688	22.78	30.06	0.04	7.55
22.720	22.75	30.04	0.04	7.55
22.752	22.75	30.04	-0.04	7.47
22.784	22.75	30.04	-0.04	7.47
22.816	22.74	30.02	-0.04	7.47
22.848	22.74	30.02	0.06	7.57
22.880	22.74	30.02	0.06	7.57
22.912	22.75	30.04	0.06	7.57
22.944	22.75	30.04	-0.03	7.48
22.976	22.75	30.04	-0.03	7.48
23.008	22.74	30.03	-0.03	7.48
23.040	22.74	30.03	0.01	7.52
23.072	22.74	30.03	0.01	7.52
23.104	22.74	30.03	0.01	7.52
23.136	22.74	30.03	0.05	7.56
23.168	22.74	30.03	0.05	7.56
23.200	22.75	30.04	0.05	7.56
23.232	22.75	30.04	-0.04	7.47
23.264	22.75	30.04	-0.04	7.47
23.296	22.75	30.03	-0.04	7.47
23.328	22.75	30.03	0.05	7.56
23.360	22.75	30.03	0.05	7.56
23.392	22.76	30.05	0.05	7.56
23.424	22.76	30.05	-0.02	7.49
23.456	22.76	30.05	-0.02	7.49
23.488	22.77	30.06	-0.02	7.49
23.520	22.77	30.06	-0.01	7.50
23.552	22.77	30.06	-0.01	7.50
23.584	22.74	30.02	-0.01	7.50
23.616	22.74	30.02	0.05	7.56
23.648	22.74	30.02	0.05	7.56
23.680	22.73	30.02	0.05	7.56
23.712	22.73	30.02	-0.05	7.46
23.744	22.73	30.02	-0.05	7.46
23.776	22.70	29.99	-0.05	7.46
23.808	22.70	29.99	0.05	7.56
23.840	22.70	29.99	0.05	7.56
23.872	22.75	30.04	0.05	7.56
23.904	22.75	30.04	-0.01	7.50
23.936	22.75	30.04	-0.01	7.50
23.968	22.75	30.04	-0.01	7.50
24.000	22.75	30.04	-0.02	7.49
24.032	22.75	30.04	-0.02	7.49
24.064	22.76	30.05	-0.02	7.49
24.096	22.76	30.05	0.06	7.57
24.128	22.76	30.05	0.06	7.57
24.160	22.75	30.04	0.06	7.57
24.192	22.75	30.04	-0.04	7.47
24.224	22.75	30.04	-0.04	7.47
24.256	22.76	30.05	-0.04	7.47
24.288	22.76	30.05	0.05	7.55
24.320	22.76	30.05	0.05	7.55
24.352	22.78	30.07	0.05	7.55
24.384	22.78	30.07	0.01	7.52
24.416	22.78	30.07	0.01	7.52
24.448	22.78	30.07	0.01	7.52
24.480	22.78	30.07	-0.03	7.48
24.512	22.78	30.07	-0.03	7.48
24.544	22.77	30.06	-0.03	7.48
24.576	22.77	30.06	0.06	7.57
24.608	22.77	30.06	0.06	7.57
24.640	22.77	30.06	0.06	7.57
24.672	22.77	30.06	-0.04	7.47
24.704	22.77	30.06	-0.04	7.47
24.736	22.74	30.03	-0.04	7.47
24.768	22.74	30.03	0.05	7.55
24.800	22.74	30.03	0.05	7.55
24.832	22.75	30.04	0.05	7.55
24.864	22.75	30.04	0.02	7.53
24.896	22.75	30.04	0.02	7.53
24.928	22.74	30.03	0.02	7.53
24.960	22.74	30.03	-0.03	7.48
24.992	22.74	30.03	-0.03	7.48
25.024	22.76	30.05	-0.03	7.48
25.056	22.76	30.05	0.06	7.57
25.088	22.76	30.05	0.06	7.57
25.120	22.79	30.08	0.06	7.57
25.152	22.79	30.08	-0.03	7.48
25.184	22.79	30.08	-0.03	7.48
25.216	22.76	30.05	-0.03	7.48
25.248	22.76	30.05	0.04	7.54
25.280	22.76	30.05	0.04	7.54
25.312	22.75	30.04	0.04	7.54
25.344	22.75	30.04	0.03	7.54
25.376	22.75	30.04	0.03	7.54
25.408	22.78	30.07	0.03	7.54
25.440	22.78	30.07	-0.04	7.47
25.472	22.78	30.07	-0.04	7.47
25.504	22.75	30.04	-0.04	7.47
25.536	22.75	30.04	0.06	7.57
25.568	22.75	30.04	0.06	7.57
25.600	22.76	30.05	0.06	7.57
25.632	22.76	30.05	-0.03	7.48
25.664	22.76	30.05	-0.03	7.48
25.696	22.78	30.07	-0.03	7.48
25.728	22.78	30.07	0.03	7.54
25.760	22.78	30.07	0.03	7.54
25.792	22.77	30.05	0.03	7.54
25.824	22.77	30.05	0.04	7.55
25.856	22.77	30.05	0.04	7.55
25.888	22.79	30.08	0.04	7.55
25.920	22.79	30.08	-0.04	7.47
25.952	22.79	30.08	-0.04	7.47
25.984	22.77	30.06	-0.04	7.47
26.016	22.77	30.06	0.06	7.57
26.048	22.77	30.06	0.06	7.57
26.080	22.75	30.04	0.06	7.57
26.112	22.75	30.04	-0.03	7.48
26.144	22.75	30.04	-0.03	7.48
26.176	22.78	30.07	-0.03	7.48
26.208	22.78	30.07	0.01	7.52
26.240	22.78	30.07	0.01	7.52
26.272	22.76	30.05	0.01	7.52
26.304	22.76	30.05	0.05	7.56
26.336	22.76	30.05	0.05	7.56
26.368	22.76	30.05	0.05	7.56
26.400	22.76	30.05	-0.05	7.46
26.432	22.76	30.05	-0.05	7.46
26.464	22.73	30.02	-0.05	7.46
26.496	22.73	30.02	0.05	7.56
26.528	22.73	30.02	0.05	7.56
26.560	22.74	30.03	0.05	7.56
26.592	22.74	30.03	-0.02	7.49
26.624	22.74	30.03	-0.02	7.49
26.656	22.75	30.04	-0.02	7.49
26.688	22.75	30.04	-0.01	7.50
26.720	22.75	30.04	-0.01	7.50
26.752	22.75	30.04	-0.01	7.50
26.784	22.75	30.04	0.05	7.56
26.816	22.75	30.04	0.05	7.56
26.848	22.73	30.01	0.05	7.56
26.880	22.73	30.01	-0.05	7.46
26.912	22.73	30.01	-0.05	7.46
26.944	22.76	30.05	-0.05	7.46
26.976	22.76	30.05	0.05	7.55
27.008	22.76	30.05	0.05	7.55
27.040	22.76	30.05	0.05	7.55
27.072	22.76	30.05	-0.01	7.49
27.104	22.76	30.05	-0.01	7.49
27.136	22.78	30.07	-0.01	7.49
27.168	22.78	30.07	-0.01	7.50
27.200	22.78	30.07	-0.01	7.50
27.232	22.77	30.06	-0.01	7.50
27.264	22.77	30.06	0.05	7.56
27.296	22.77	30.06	0.05	7.56
27.328	22.77	30.06	0.05	7.56
27.360	22.77	30.06	-0.04	7.47
27.392	22.77	30.06	-0.04	7.47
27.424	22.76	30.05	-0.04	7.47
27.456	22.76	30.05	0.05	7.55
27.488	22.76	30.05	0.05	7.55
27.520	22.72	30.01	0.05	7.55
27.552	22.72	30.01	-0.00	7.50
27.584	22.72	30.01	-0.00	7.50
27.616	22.74	30.03	-0.00	7.50
27.648	22.74	30.03	-0.02	7.49
27.680	22.74	30.03	-0.02	7.49
27.712	22.75	30.04	-0.02	7.49
27.744	22.75	30.04	0.06	7.57
27.776	22.75	30.04	0.06	7.57
27.808	22.76	30.05	0.06	7.57
27.840	22.76	30.05	-0.04	7.47
27.872	22.76	30.05	-0.04	7.47
27.904	22.75	30.04	-0.04	7.47
27.936	22.75	30.04	0.04	7.55
27.968	22.75	30.04	0.04	7.55
28.000	22.77	30.06	0.04	7.55
28.032	22.77	30.06	0.01	7.52
28.064	22.77	30.06	0.01	7.52
28.096	22.79	30.08	0.01	7.52
28.128	22.79	30.08	-0.03	7.48
28.160	22.79	30.08	-0.03	7.48
28.192	22.76	30.05	-0.03	7.48
28.224	22.76	30.05	0.06	7.57
28.256	22.76	30.05	0.06	7.57
28.288	22.74	30.03	0.06	7.57
28.320	22.74	30.03	-0.04	7.47
28.352	22.74	30.03	-0.04	7.47
28.384	22.76	30.05	-0.04	7.47
28.416	22.76	30.05	0.04	7.55
28.448	22.76	30.05	0.04	7.55
28.480	22.78	30.07	0.04	7.55
28.512	22.78	30.07	0.02	7.53
28.544	22.78	30.07	0.02	7.53
28.576	22.77	30.06	0.02	7.53
28.608	22.77	30.06	-0.03	7.48
28.640	22.77	30.06	-0.03	7.48
28.672	22.75	30.04	-0.03	7.48
28.704	22.75	30.04	0.06	7.57
28.736	22.75	30.04	0.06	7.57
28.768	22.75	30.04	0.06	7.57
28.800	22.75	30.04	-0.03	7.48
28.832	22.75	30.04	-0.03	7.48
28.864	22.77	30.06	-0.03	7.48
28.896	22.77	30.06	0.04	7.54
28.928	22.77	30.06	0.04	7.54
28.960	22.79	30.08	0.04	7.54
28.992	22.79	30.08	0.03	7.54
29.024	22.79	30.08	0.03	7.54
29.056	22.76	30.05	0.03	7.54
29.088	22.76	30.05	-0.03	7.48
29.120	22.76	30.05	-0.03	7.48
29.152	22.77	30.05	-0.03	7.48
29.184	22.77	30.05	0.06	7.57
29.216	22.77	30.05	0.06	7.57
29.248	22.76	30.04	0.06	7.57
29.280	22.76	30.04	-0.03	7.48
29.312	22.76	30.04	-0.03	7.48
29.344	22.71	30.00	-0.03	7.48
29.376	22.71	30.00	0.03	7.54
29.408	22.71	30.00	0.03	7.54
29.440	22.75	30.04	0.03	7.54
29.472	22.75	30.04	0.04	7.55
29.504	22.75	30.04	0.04	7.55
29.536	22.76	30.05	0.04	7.55
29.568	22.76	30.05	-0.04	7.47
29.600	22.76	30.05	-0.04	7.47
29.632	22.75	30.03	-0.04	7.47
29.664	22.75	30.03	0.06	7.57
29.696	22.75	30.03	0.06	7.57
29.728	22.77	30.06	0.06	7.57
29.760	22.77	30.06	-0.03	7.48
29.792	22.77	30.06	-0.03	7.48
29.824	22.76	30.05	-0.03	7.48
29.856	22.76	30.05	0.01	7.52
29.888	22.76	30.05	0.01	7.52
29.920	22.79	30.08	0.01	7.52
29.952	22.79	30.08	0.05	7.55
29.984	22.79	30.08	0.05	7.55
30.016	22.79	30.08	0.05	7.55
30.048	22.79	30.08	-0.05	7.46
30.080	22.79	30.08	-0.05	7.46
30.112	22.76	30.04	-0.05	7.46
30.144	22.76	30.04	0.05	7.56
30.176	22.76	30.04	0.05	7.56
30.208	22.77	30.06	0.05	7.56
30.240	22.77	30.06	-0.03	7.48
30.272	22.77	30.06	-0.03	7.48
30.304	22.75	30.04	-0.03	7.48
30.336	22.75	30.04	0.00	7.51
30.368	22.75	30.04	0.00	7.51
30.400	22.81	30.09	0.00	7.51
30.432	22.81	30.09	0.05	7.56
30.464	22.81	30.09	0.05	7.56
30.496	22.79	30.08	0.05	7.56
30.528	22.79	30.08	-0.04	7.47
30.560	22.79	30.08	-0.04	7.47
30.592	22.80	30.09	-0.04	7.47
30.624	22.80	30.09	0.05	7.55
30.656	22.80	30.09	0.05	7.55
30.688	22.83	30.12	0.05	7.55
30.720	22.83	30.12	-0.02	7.48
30.752	22.83	30.12	-0.02	7.48
30.784	22.84	30.13	-0.02	7.48
30.816	22.84	30.13	0.00	7.51
30.848	22.84	30.13	0.00	7.51
30.880	22.85	30.14	0.00	7.51
30.912	22.85	30.14	0.04	7.55
30.944	22.85	30.14	0.04	7.55
30.976	22.84	30.13	0.04	7.55
31.008	22.84	30.13	-0.04	7.47
31.040	22.84	30.13	-0.04	7.47
31.072	22.82	30.11	-0.04	7.47
31.104	22.82	30.11	0.04	7.55
31.136	22.82	30.11	0.04	7.55
31.168	22.78	30.07	0.04	7.55
31.200	22.78	30.07	-0.01	7.49
31.232	22.78	30.07	-0.01	7.49
31.264	22.81	30.10	-0.01	7.49
31.296	22.81	30.10	-0.01	7.49
31.328	22.81	30.10	-0.01	7.49
31.360	22.85	30.14	-0.01	7.49
31.392	22.85	30.14	0.06	7.57
31.424	22.85	30.14	0.06	7.57
31.456	22.78	30.07	0.06	7.57
31.488	22.78	30.07	-0.04	7.47
31.520	22.78	30.07	-0.04	7.47
31.552	22.82	30.11	-0.04	7.47
31.584	22.82	30.11	0.04	7.55
31.616	22.82	30.11	0.04	7.55
31.648	22.83	30.11	0.04	7.55
31.680	22.83	30.11	-0.00	7.51
31.712	22.83	30.11	-0.00	7.51
31.744	22.89	30.18	-0.00	7.51
31.776	22.89	30.18	-0.02	7.49
31.808	22.89	30.18	-0.02	7.49
31.840	22.92	30.20	-0.02	7.49
31.872	22.92	30.20	0.06	7.57
31.904	22.92	30.20	0.06	7.57
31.936	22.89	30.17	0.06	7.57
31.968	22.89	30.17	-0.04	7.47
32.000	22.89	30.17	-0.04	7.47
32.032	22.89	30.18	-0.04	7.47
32.064	22.89	30.18	0.05	7.56
32.096	22.89	30.18	0.05	7.56
32.128	22.85	30.14	0.05	7.56
32.160	22.85	30.14	0.01	7.52
32.192	22.85	30.14	0.01	7.52
32.224	22.87	30.16	0.01	7.52
32.256	22.87	30.16	-0.02	7.49
32.288	22.87	30.16	-0.02	7.49
32.320	22.85	30.14	-0.02	7.49
32.352	22.85	30.14	0.06	7.57
32.384	22.85	30.14	0.06	7.57
32.416	22.85	30.13	0.06	7.57
32.448	22.85	30.13	-0.04	7.47
32.480	22.85	30.13	-0.04	7.47
32.512	22.86	30.15	-0.04	7.47
32.544	22.86	30.15	0.04	7.55
32.576	22.86	30.15	0.04	7.55
32.608	22.82	30.11	0.04	7.55
32.640	22.82	30.11	0.02	7.53
32.672	22.82	30.11	0.02	7.53
32.704	22.87	30.16	0.02	7.53
32.736	22.87	30.16	-0.03	7.48
32.768	22.87	30.16	-0.03	7.48
32.800	22.87	30.16	-0.03	7.48
32.832	22.87	30.16	0.06	7.57
32.864	22.87	30.16	0.06	7.57
32.896	22.85	30.14	0.06	7.57
32.928	22.85	30.14	-0.03	7.48
32.960	22.85	30.14	-0.03	7.48
32.992	22.88	30.16	-0.03	7.48
33.024	22.88	30.16	0.04	7.54
33.056	22.88	30.16	0.04	7.54
33.088	22.83	30.12	0.04	7.54
33.120	22.83	30.12	0.03	7.54
33.152	22.83	30.12	0.03	7.54
33.184	22.84	30.13	0.03	7.54
33.216	22.84	30.13	-0.03	7.48
33.248	22.84	30.13	-0.03	7.48
33.280	22.84	30.13	-0.03	7.48
33.312	22.84	30.13	0.06	7.57
33.344	22.84	30.13	0.06	7.57
33.376	22.80	30.08	0.06	7.57
33.408	22.80	30.08	-0.03	7.48
33.440	22.80	30.08	-0.03	7.48
33.472	22.85	30.13	-0.03	7.48
33.504	22.85	30.13	0.03	7.54
33.536	22.85	30.13	0.03	7.54
33.568	22.84	30.13	0.03	7.54
33.600	22.84	30.13	0.04	7.55
33.632	22.84	30.13	0.04	7.55
33.664	22.89	30.18	0.04	7.55
33.696	22.89	30.18	-0.04	7.47
33.728	22.89	30.18	-0.04	7.47
33.760	22.89	30.18	-0.04	7.47
33.792	22.89	30.18	0.06	7.57
33.824	22.89	30.18	0.06	7.57
33.856	22.84	30.13	0.06	7.57
33.888	22.84	30.13	-0.03	7.48
33.920	22.84	30.13	-0.03	7.48
33.952	22.88	30.16	-0.03	7.48
33.984	22.88	30.16	0.01	7.52
34.016	22.88	30.16	0.01	7.52
34.048	22.88	30.16	0.01	7.52
34.080	22.88	30.16	0.04	7.55
34.112	22.88	30.16	0.04	7.55
34.144	22.90	30.19	0.04	7.55
34.176	22.90	30.19	-0.04	7.47
34.208	22.90	30.19	-0.04	7.47
34.240	22.85	30.13	-0.04	7.47
34.272	22.85	30.13	0.05	7.56
34.304	22.85	30.13	0.05	7.56
34.336	22.84	30.13	0.05	7.56
34.368	22.84	30.13	-0.03	7.48
34.400	22.84	30.13	-0.03	7.48
34.432	22.84	30.13	-0.03	7.48
34.464	22.84	30.13	0.01	7.52
34.496	22.84	30.13	0.01	7.52
34.528	22.88	30.17	0.01	7.52
34.560	22.88	30.17	0.05	7.56
34.592	22.88	30.17	0.05	7.56
34.624	22.87	30.16	0.05	7.56
34.656	22.87	30.16	-0.05	7.46
34.688	22.87	30.16	-0.05	7.46
34.720	22.87	30.16	-0.05	7.46
34.752	22.87	30.16	0.05	7.56
34.784	22.87	30.16	0.05	7.56
34.816	22.83	30.12	0.05	7.56
34.848	22.83	30.12	-0.02	7.48
34.880	22.83	30.12	-0.02	7.48
34.912	22.82	30.10	-0.02	7.48
34.944	22.82	30.10	-0.00	7.50
34.976	22.82	30.10	-0.00	7.50
35.008	22.85	30.14	-0.00	7.50
35.040	22.85	30.14	0.05	7.56
35.072	22.85	30.14	0.05	7.56
35.104	22.84	30.13	0.05	7.56
35.136	22.84	30.13	-0.04	7.47
35.168	22.84	30.13	-0.04	7.47
35.200	22.84	30.13	-0.04	7.47
35.232	22.84	30.13	0.05	7.55
35.264	22.84	30.13	0.05	7.55
35.296	22.85	30.14	0.05	7.55
35.328	22.85	30.14	-0.01	7.49
35.360	22.85	30.14	-0.01	7.49
35.392	22.88	30.17	-0.01	7.49
35.424	22.88	30.17	-0.01	7.50
35.456	22.88	30.17	-0.01	7.50
35.488	22.87	30.16	-0.01	7.50
35.520	22.87	30.16	0.05	7.56
35.552	22.87	30.16	0.05	7.56
35.584	22.89	30.18	0.05	7.56
35.616	22.89	30.18	-0.04	7.47
35.648	22.89	30.18	-0.04	7.47
35.680	22.83	30.12	-0.04	7.47
35.712	22.83	30.12	0.05	7.56
35.744	22.83	30.12	0.05	7.56
35.776	22.88	30.17	0.05	7.56
35.808	22.88	30.17	-0.01	7.50
35.840	22.88	30.17	-0.01	7.50
35.872	22.84	30.13	-0.01	7.50
35.904	22.84	30.13	-0.02	7.49
35.936	22.84	30.13	-0.02	7.49
35.968	22.88	30.16	-0.02	7.49
36.000	22.88	30.16	0.05	7.56
36.032	22.88	30.16	0.05	7.56
36.064	22.90	30.19	0.05	7.56
36.096	22.90	30.19	-0.04	7.47
36.128	22.90	30.19	-0.04	7.47
36.160	22.88	30.17	-0.04	7.47
36.192	22.88	30.17	0.05	7.55
36.224	22.88	30.17	0.05	7.55
36.256	22.90	30.19	0.05	7.55
36.288	22.90	30.19	0.00	7.51
36.320	22.90	30.19	0.00	7.51
36.352	22.88	30.17	0.00	7.51
36.384	22.88	30.17	-0.02	7.48
36.416	22.88	30.17	-0.02	7.48
36.448	22.91	30.20	-0.02	7.48
36.480	22.91	30.20	0.06	7.57
36.512	22.91	30.20	0.06	7.57
36.544	22.89	30.18	0.06	7.57
36.576	22.89	30.18	-0.03	7.48
36.608	22.89	30.18	-0.03	7.48
36.640	22.89	30.18	-0.03	7.48
36.672	22.89	30.18	0.05	7.56
36.704	22.89	30.18	0.05	7.56
36.736	22.89	30.18	0.05	7.56
36.768	22.89	30.18	0.01	7.52
36.800	22.89	30.18	0.01	7.52
36.832	22.84	30.12	0.01	7.52
36.864	22.84	30.12	-0.03	7.48
36.896	22.84	30.12	-0.03	7.48
36.928	22.87	30.16	-0.03	7.48
36.960	22.87	30.16	0.06	7.57
36.992	22.87	30.16	0.06	7.57
37.024	22.84	30.12	0.06	7.57
37.056	22.84	30.12	-0.03	7.48
37.088	22.84	30.12	-0.03	7.48
37.120	22.84	30.13	-0.03	7.48
37.152	22.84	30.13	0.04	7.55
37.184	22.84	30.13	0.04	7.55
37.216	22.86	30.15	0.04	7.55
37.248	22.86	30.15	0.02	7.53
37.280	22.86	30.15	0.02	7.53
37.312	22.88	30.17	0.02	7.53
37.344	22.88	30.17	-0.03	7.48
37.376	22.88	30.17	-0.03	7.48
37.408	22.87	30.16	-0.03	7.48
37.440	22.87	30.16	0.06	7.57
37.472	22.87	30.16	0.06	7.57
37.504	22.87	30.16	0.06	7.57
37.536	22.87	30.16	-0.03	7.48
37.568	22.87	30.16	-0.03	7.48
37.600	22.86	30.15	-0.03	7.48
37.632	22.86	30.15	0.04	7.55
37.664	22.86	30.15	0.04	7.55
37.696	22.85	30.14	0.04	7.55
37.728	22.85	30.14	0.03	7.54
37.760	22.85	30.14	0.03	7.54
37.792	22.84	30.13	0.03	7.54
37.824	22.84	30.13	-0.03	7.48
37.856	22.84	30.13	-0.03	7.48
37.888	22.84	30.13	-0.03	7.48
37.920	22.84	30.13	0.06	7.57
37.952	22.84	30.13	0.06	7.57
37.984	22.83	30.12	0.06	7.57
38.016	22.83	30.12	-0.03	7.48
38.048	22.83	30.12	-0.03	7.48
38.080	22.84	30.13	-0.03	7.48
38.112	22.84	30.13	0.03	7.54
38.144	22.84	30.13	0.03	7.54
38.176	22.84	30.13	0.03	7.54
38.208	22.84	30.13	0.04	7.55
38.240	22.84	30.13	0.04	7.55
38.272	22.89	30.17	0.04	7.55
38.304	22.89	30.17	-0.04	7.47
38.336	22.89	30.17	-0.04	7.47
38.368	22.87	30.16	-0.04	7.47
38.400	22.87	30.16	0.06	7.57
38.432	22.87	30.16	0.06	7.57
38.464	22.85	30.14	0.06	7.57
38.496	22.85	30.14	-0.03	7.48
38.528	22.85	30.14	-0.03	7.48
38.560	22.85	30.14	-0.03	7.48
38.592	22.85	30.14	0.02	7.53
38.624	22.85	30.14	0.02	7.53
38.656	22.83	30.12	0.02	7.53
38.688	22.83	30.12	0.04	7.55
38.720	22.83	30.12	0.04	7.55
38.752	22.84	30.13	0.04	7.55
38.784	22.84	30.13	-0.04	7.47
38.816	22.84	30.13	-0.04	7.47
38.848	22.83	30.12	-0.04	7.47
38.880	22.83	30.12	0.06	7.57
38.912	22.83	30.12	0.06	7.57
38.944	22.86	30.15	0.06	7.57
38.976	22.86	30.15	-0.02	7.48
39.008	22.86	30.15	-0.02	7.48
39.040	22.88	30.17	-0.02	7.48
39.072	22.88	30.17	0.01	7.52
39.104	22.88	30.17	0.01	7.52
39.136	22.85	30.14	0.01	7.52
39.168	22.85	30.14	0.05	7.55
39.200	22.85	30.14	0.05	7.55
39.232	22.88	30.17	0.05	7.55
39.264	22.88	30.17	-0.04	7.47
39.296	22.88	30.17	-0.04	7.47
39.328	22.88	30.17	-0.04	7.47
39.360	22.88	30.17	0.05	7.56
39.392	22.88	30.17	0.05	7.56
39.424	22.87	30.16	0.05	7.56
39.456	22.87	30.16	-0.02	7.49
39.488	22.87	30.16	-0.02	7.49
39.520	22.86	30.15	-0.02	7.49
39.552	22.86	30.15	0.00	7.51
39.584	22.86	30.15	0.00	7.51
39.616	22.89	30.17	0.00	7.51
39.648	22.89	30.17	0.05	7.55
39.680	22.89	30.17	0.05	7.55
39.712	22.85	30.13	0.05	7.55
39.744	22.85	30.13	-0.04	7.47
39.776	22.85	30.13	-0.04	7.47
39.808	22.86	30.15	-0.04	7.47
39.840	22.86	30.15	0.05	7.56
39.872	22.86	30.15	0.05	7.56
39.904	22.86	30.14	0.05	7.56
39.936	22.86	30.14	-0.02	7.49
39.968	22.86	30.14	-0.02	7.49
40.000	22.85	30.14	-0.02	7.49
40.032	22.85	30.14	-0.00	7.51
40.064	22.85	30.14	-0.00	7.51
40.096	22.91	30.20	-0.00	7.51
40.128	22.91	30.20	0.05	7.56
40.160	22.91	30.20	0.05	7.56
40.192	22.89	30.18	0.05	7.56
40.224	22.89	30.18	-0.05	7.46
40.256	22.89	30.18	-0.05	7.46
40.288	22.88	30.17	-0.05	7.46
40.320	22.88	30.17	0.04	7.55
40.352	22.88	30.17	0.04	7.55
40.384	22.85	30.14	0.04	7.55
40.416	22.85	30.14	-0.02	7.49
40.448	22.85	30.14	-0.02	7.49
40.480	22.82	30.10	-0.02	7.49
40.512	22.82	30.10	-0.01	7.50
40.544	22.82	30.10	-0.01	7.50
40.576	22.84	30.13	-0.01	7.50
40.608	22.84	30.13	0.05	7.56
40.640	22.84	30.13	0.05	7.56
40.672	22.84	30.13	0.05	7.56
40.704	22.84	30.13	-0.04	7.47
40.736	22.84	30.13	-0.04	7.47
40.768	22.87	30.15	-0.04	7.47
40.800	22.87	30.15	0.04	7.55
40.832	22.87	30.15	0.04	7.55
40.864	22.84	30.13	0.04	7.55
40.896	22.84	30.13	-0.01	7.50
40.928	22.84	30.13	-0.01	7.50
40.960	22.84	30.12	-0.01	7.50
40.992	22.84	30.12	-0.02	7.49
41.024	22.84	30.12	-0.02	7.49
41.056	22.87	30.16	-0.02	7.49
41.088	22.87	30.16	0.06	7.57
41.120	22.87	30.16	0.06	7.57
41.152	22.88	30.16	0.06	7.57
41.184	22.88	30.16	-0.04	7.47
41.216	22.88	30.16	-0.04	7.47
41.248	22.85	30.14	-0.04	7.47
41.280	22.85	30.14	0.05	7.56
41.312	22.85	30.14	0.05	7.56
41.344	22.85	30.14	0.05	7.56
41.376	22.85	30.14	-0.00	7.51
41.408	22.85	30.14	-0.00	7.51
41.440	22.84	30.13	-0.00	7.51
41.472	22.84	30.13	-0.02	7.49
41.504	22.84	30.13	-0.02	7.49
41.536	22.86	30.14	-0.02	7.49
41.568	22.86	30.14	0.05	7.56
41.600	22.86	30.14	0.05	7.56
41.632	22.88	30.17	0.05	7.56
41.664	22.88	30.17	-0.04	7.47
41.696	22.88	30.17	-0.04	7.47
41.728	22.87	30.16	-0.04	7.47
41.760	22.87	30.16	0.05	7.56
41.792	22.87	30.16	0.05	7.56
41.824	22.87	30.15	0.05	7.56
41.856	22.87	30.15	0.01	7.52
41.888	22.87	30.15	0.01	7.52
41.920	22.86	30.14	0.01	7.52
41.952	22.86	30.14	-0.02	7.48
41.984	22.86	30.14	-0.02	7.48
42.016	22.90	30.19	-0.02	7.48
42.048	22.90	30.19	0.06	7.57
42.080	22.90	30.19	0.06	7.57
42.112	22.83	30.12	0.06	7.57
42.144	22.83	30.12	-0.04	7.47
42.176	22.83	30.12	-0.04	7.47
42.208	22.85	30.14	-0.04	7.47
42.240	22.85	30.14	0.05	7.55
42.272	22.85	30.14	0.05	7.55
42.304	22.85	30.13	0.05	7.55
42.336	22.85	30.13	0.01	7.52
42.368	22.85	30.13	0.01	7.52
42.400	22.87	30.16	0.01	7.52
42.432	22.87	30.16	-0.02	7.48
42.464	22.87	30.16	-0.02	7.48
42.496	22.86	30.14	-0.02	7.48
42.528	22.86	30.14	0.07	7.58
42.560	22.86	30.14	0.07	7.58
42.592	22.88	30.17	0.07	7.58
42.624	22.88	30.17	-0.03	7.48
42.656	22.88	30.17	-0.03	7.48
42.688	22.86	30.15	-0.03	7.48
42.720	22.86	30.15	0.05	7.55
42.752	22.86	30.15	0.05	7.55
42.784	22.89	30.18	0.05	7.55
42.816	22.89	30.18	0.02	7.53
42.848	22.89	30.18	0.02	7.53
42.880	22.88	30.16	0.02	7.53
42.912	22.88	30.16	-0.03	7.48
42.944	22.88	30.16	-0.03	7.48
42.976	22.88	30.17	-0.03	7.48
43.008	22.88	30.17	0.06	7.57
43.040	22.88	30.17	0.06	7.57
43.072	22.87	30.15	0.06	7.57
43.104	22.87	30.15	-0.03	7.48
43.136	22.87	30.15	-0.03	7.48
43.168	22.84	30.13	-0.03	7.48
43.200	22.84	30.13	0.04	7.55
43.232	22.84	30.13	0.04	7.55
43.264	22.83	30.12	0.04	7.55
43.296	22.83	30.12	0.02	7.53
43.328	22.83	30.12	0.02	7.53
43.360	22.85	30.14	0.02	7.53
43.392	22.85	30.14	-0.03	7.48
43.424	22.85	30.14	-0.03	7.48
43.456	22.85	30.13	-0.03	7.48
43.488	22.85	30.13	0.06	7.57
43.520	22.85	30.13	0.06	7.57
43.552	22.81	30.10	0.06	7.57
43.584	22.81	30.10	-0.03	7.48
43.616	22.81	30.10	-0.03	7.48
43.648	22.85	30.14	-0.03	7.48
43.680	22.85	30.14	0.04	7.54
43.712	22.85	30.14	0.04	7.54
43.744	22.82	30.11	0.04	7.54
43.776	22.82	30.11	0.03	7.54
43.808	22.82	30.11	0.03	7.54
43.840	22.87	30.16	0.03	7.54
43.872	22.87	30.16	-0.03	7.48
43.904	22.87	30.16	-0.03	7.48
43.936	22.86	30.15	-0.03	7.48
43.968	22.86	30.15	0.06	7.57
44.000	22.86	30.15	0.06	7.57
44.032	22.85	30.14	0.06	7.57
44.064	22.85	30.14	-0.03	7.48
44.096	22.85	30.14	-0.03	7.48
44.128	22.85	30.14	-0.03	7.48
44.160	22.85	30.14	0.03	7.54
44.192	22.85	30.14	0.03	7.54
44.224	22.82	30.11	0.03	7.54
44.256	22.82	30.11	0.04	7.55
44.288	22.82	30.11	0.04	7.55
44.320	22.84	30.12	0.04	7.55
44.352	22.84	30.12	-0.04	7.47
44.384	22.84	30.12	-0.04	7.47
44.416	22.84	30.13	-0.04	7.47
44.448	22.84	30.13	0.06	7.57
44.480	22.84	30.13	0.06	7.57
44.512	22.87	30.15	0.06	7.57
44.544	22.87	30.15	-0.03	7.48
44.576	22.87	30.15	-0.03	7.48
44.608	22.88	30.17	-0.03	7.48
44.640	22.88	30.17	0.02	7.53
44.672	22.88	30.17	0.02	7.53
44.704	22.83	30.12	0.02	7.53
44.736	22.83	30.12	0.04	7.55
44.768	22.83	30.12	0.04	7.55
44.800	22.91	30.19	0.04	7.55
44.832	22.91	30.19	-0.04	7.47
44.864	22.91	30.19	-0.04	7.47
44.896	22.87	30.16	-0.04	7.47
44.928	22.87	30.16	0.06	7.57
44.960	22.87	30.16	0.06	7.57
44.992	22.84	30.13	0.06	7.57
45.024	22.84	30.13	-0.02	7.49
45.056	22.84	30.13	-0.02	7.49
45.088	22.82	30.11	-0.02	7.49
45.120	22.82	30.11	0.02	7.53
45.152	22.82	30.11	0.02	7.53
45.184	22.85	30.14	0.02	7.53
45.216	22.85	30.14	0.05	7.55
45.248	22.85	30.14	0.05	7.55
45.280	22.83	30.12	0.05	7.55
45.312	22.83	30.12	-0.04	7.47
45.344	22.83	30.12	-0.04	7.47
45.376	22.84	30.13	-0.04	7.47
45.408	22.84	30.13	0.05	7.56
45.440	22.84	30.13	0.05	7.56
45.472	22.85	30.13	0.05	7.56
45.504	22.85	30.13	-0.02	7.48
45.536	22.85	30.13	-0.02	7.48
45.568	22.85	30.14	-0.02	7.48
45.600	22.85	30.14	0.01	7.52
45.632	22.85	30.14	0.01	7.52
45.664	22.86	30.15	0.01	7.52
45.696	22.86	30.15	0.05	7.56
45.728	22.86	30.15	0.05	7.56
45.760	22.87	30.16	0.05	7.56
45.792	22.87	30.16	-0.04	7.47
45.824	22.87	30.16	-0.04	7.47
45.856	22.84	30.13	-0.04	7.47
45.888	22.84	30.13	0.05	7.56
45.920	22.84	30.13	0.05	7.56
45.952	22.81	30.10	0.05	7.56
45.984	22.81	30.10	-0.02	7.49
46.016	22.81	30.10	-0.02	7.49
46.048	22.82	30.11	-0.02	7.49
46.080	22.82	30.11	-0.00	7.51
46.112	22.82	30.11	-0.00	7.51
46.144	22.88	30.16	-0.00	7.51
46.176	22.88	30.16	0.05	7.55
46.208	22.88	30.16	0.05	7.55
46.240	22.85	30.14	0.05	7.55
46.272	22.85	30.14	-0.04	7.47
46.304	22.85	30.14	-0.04	7.47
46.336	22.85	30.14	-0.04	7.47
46.368	22.85	30.14	0.05	7.56
46.400	22.85	30.14	0.05	7.56
46.432	22.88	30.17	0.05	7.56
46.464	22.88	30.17	-0.02	7.49
46.496	22.88	30.17	-0.02	7.49
46.528	22.84	30.13	-0.02	7.49
46.560	22.84	30.13	-0.00	7.51
46.592	22.84	30.13	-0.00	7.51
46.624	22.85	30.14	-0.00	7.51
46.656	22.85	30.14	0.05	7.56
46.688	22.85	30.14	0.05	7.56
46.720	22.87	30.16	0.05	7.56
46.752	22.87	30.16	-0.04	7.47
46.784	22.87	30.16	-0.04	7.47
46.816	22.80	30.09	-0.04	7.47
46.848	22.80	30.09	0.05	7.56
46.880	22.80	30.09	0.05	7.56
46.912	22.83	30.12	0.05	7.56
46.944	22.83	30.12	-0.02	7.49
46.976	22.83	30.12	-0.02	7.49
47.008	22.82	30.10	-0.02	7.49
47.040	22.82	30.10	-0.01	7.50
47.072	22.82	30.10	-0.01	7.50
47.104	22.86	30.14	-0.01	7.50
47.136	22.86	30.14	0.05	7.56
47.168	22.86	30.14	0.05	7.56
47.200	22.84	30.13	0.05	7.56
47.232	22.84	30.13	-0.04	7.47
47.264	22.84	30.13	-0.04	7.47
47.296	22.86	30.15	-0.04	7.47
47.328	22.86	30.15	0.05	7.56
47.360	22.86	30.15	0.05	7.56
47.392	22.88	30.17	0.05	7.56
47.424	22.88	30.17	-0.01	7.50
47.456	22.88	30.17	-0.01	7.50
47.488	22.88	30.16	-0.01	7.50
47.520	22.88	30.16	-0.02	7.49
47.552	22.88	30.16	-0.02	7.49
47.584	22.88	30.17	-0.02	7.49
47.616	22.88	30.17	0.05	7.56
47.648	22.88	30.17	0.05	7.56
47.680	22.85	30.14	0.05	7.56
47.712	22.85	30.14	-0.04	7.47
47.744	22.85	30.14	-0.04	7.47
47.776	22.86	30.15	-0.04	7.47
47.808	22.86	30.15	0.05	7.56
47.840	22.86	30.15	0.05	7.56
47.872	22.84	30.13	0.05	7.56
47.904	22.84	30.13	-0.01	7.50
47.936	22.84	30.13	-0.01	7.50
47.968	22.84	30.12	-0.01	7.50
48.000	22.84	30.12	-0.02	7.49
48.032	22.84	30.12	-0.02	7.49
48.064	22.84	30.13	-0.02	7.49
48.096	22.84	30.13	0.05	7.56
48.128	22.84	30.13	0.05	7.56
48.160	22.88	30.17	0.05	7.56
48.192	22.88	30.17	-0.04	7.47
48.224	22.88	30.17	-0.04	7.47
48.256	22.86	30.15	-0.04	7.47
48.288	22.86	30.15	0.05	7.56
48.320	22.86	30.15	0.05	7.56
48.352	22.86	30.15	0.05	7.56
48.384	22.86	30.15	0.00	7.51
48.416	22.86	30.15	0.00	7.51
48.448	22.89	30.17	0.00	7.51
48.480	22.89	30.17	-0.02	7.49
48.512	22.89	30.17	-0.02	7.49
48.544	22.87	30.16	-0.02	7.49
48.576	22.87	30.16	0.06	7.57
48.608	22.87	30.16	0.06	7.57
48.640	22.85	30.13	0.06	7.57
48.672	22.85	30.13	-0.03	7.48
48.704	22.85	30.13	-0.03	7.48
48.736	22.81	30.10	-0.03	7.48
48.768	22.81	30.10	0.05	7.55
48.800	22.81	30.10	0.05	7.55
48.832	22.78	30.07	0.05	7.55
48.864	22.78	30.07	0.01	7.52
48.896	22.78	30.07	0.01	7.52
48.928	22.84	30.13	0.01	7.52
48.960	22.84	30.13	-0.03	7.48
48.992	22.84	30.13	-0.03	7.48
49.024	22.85	30.13	-0.03	7.48
49.056	22.85	30.13	0.06	7.57
49.088	22.85	30.13	0.06	7.57
49.120	22.83	30.12	0.06	7.57
49.152	22.83	30.12	-0.04	7.47
49.184	22.83	30.12	-0.04	7.47
49.216	22.87	30.15	-0.04	7.47
49.248	22.87	30.15	0.04	7.55
49.280	22.87	30.15	0.04	7.55
49.312	22.86	30.14	0.04	7.55
49.344	22.86	30.14	0.02	7.53
49.376	22.86	30.14	0.02	7.53
49.408	22.88	30.17	0.02	7.53
49.440	22.88	30.17	-0.03	7.48
49.472	22.88	30.17	-0.03	7.48
49.504	22.88	30.17	-0.03	7.48
49.536	22.88	30.17	0.06	7.57
49.568	22.88	30.17	0.06	7.57
49.600	22.89	30.18	0.06	7.57
49.632	22.89	30.18	-0.03	7.48
49.664	22.89	30.18	-0.03	7.48
49.696	22.84	30.12	-0.03	7.48
49.728	22.84	30.12	0.04	7.55
49.760	22.84	30.12	0.04	7.55
49.792	22.82	30.10	0.04	7.55
49.824	22.82	30.10	0.03	7.54
49.856	22.82	30.10	0.03	7.54
49.888	22.86	30.15	0.03	7.54
49.920	22.86	30.15	-0.03	7.48
49.952	22.86	30.15	-0.03	7.48
49.984	22.85	30.14	-0.03	7.48
50.016	22.85	30.14	0.07	7.58
50.048	22.85	30.14	0.07	7.58
50.080	22.85	30.14	0.07	7.58
50.112	22.85	30.14	-0.03	7.48
50.144	22.85	30.14	-0.03	7.48
50.176	22.86	30.15	-0.03	7.48
50.208	22.86	30.15	0.04	7.54
50.240	22.86	30.15	0.04	7.54
50.272	22.84	30.12	0.04	7.54
50.304	22.84	30.12	0.04	7.54
50.336	22.84	30.12	0.04	7.54
50.368	22.86	30.15	0.04	7.54
50.400	22.86	30.15	-0.03	7.48
50.432	22.86	30.15	-0.03	7.48
50.464	22.84	30.13	-0.03	7.48
50.496	22.84	30.13	0.06	7.57
50.528	22.84	30.13	0.06	7.57
50.560	22.82	30.11	0.06	7.57
50.592	22.82	30.11	-0.03	7.48
50.624	22.82	30.11	-0.03	7.48
50.656	22.83	30.12	-0.03	7.48
50.688	22.83	30.12	0.03	7.54
50.720	22.83	30.12	0.03	7.54
50.752	22.85	30.14	0.03	7.54
50.784	22.85	30.14	0.04	7.55
50.816	22.85	30.14	0.04	7.55
50.848	22.85	30.13	0.04	7.55
50.880	22.85	30.13	-0.04	7.47
50.912	22.85	30.13	-0.04	7.47
50.944	22.84	30.13	-0.04	7.47
50.976	22.84	30.13	0.06	7.57
51.008	22.84	30.13	0.06	7.57
51.040	22.85	30.14	0.06	7.57
51.072	22.85	30.14	-0.03	7.48
51.104	22.85	30.14	-0.03	7.48
51.136	22.83	30.12	-0.03	7.48
51.168	22.83	30.12	0.02	7.53
51.200	22.83	30.12	0.02	7.53
51.232	22.85	30.14	0.02	7.53
51.264	22.85	30.14	0.05	7.55
51.296	22.85	30.14	0.05	7.55
51.328	22.87	30.15	0.05	7.55
51.360	22.87	30.15	-0.04	7.47
51.392	22.87	30.15	-0.04	7.47
51.424	22.84	30.13	-0.04	7.47
51.456	22.84	30.13	0.06	7.57
51.488	22.84	30.13	0.06	7.57
51.520	22.84	30.13	0.06	7.57
51.552	22.84	30.13	-0.03	7.48
51.584	22.84	30.13	-0.03	7.48
51.616	22.84	30.12	-0.03	7.48
51.648	22.84	30.12	0.01	7.52
51.680	22.84	30.12	0.01	7.52
51.712	22.89	30.18	0.01	7.52
51.744	22.89	30.18	0.05	7.56
51.776	22.89	30.18	0.05	7.56
51.808	22.88	30.17	0.05	7.56
51.840	22.88	30.17	-0.04	7.47
51.872	22.88	30.17	-0.04	7.47
51.904	22.87	30.16	-0.04	7.47
51.936	22.87	30.16	0.05	7.56
51.968	22.87	30.16	0.05	7.56
52.000	22.85	30.13	0.05	7.56
52.032	22.85	30.13	-0.02	7.49
52.064	22.85	30.13	-0.02	7.49
52.096	22.85	30.14	-0.02	7.49
52.128	22.85	30.14	-0.00	7.51
52.160	22.85	30.14	-0.00	7.51
52.192	22.92	30.21	-0.00	7.51
52.224	22.92	30.21	0.05	7.56
52.256	22.92	30.21	0.05	7.56
52.288	22.87	30.16	0.05	7.56
52.320	22.87	30.16	-0.04	7.47
52.352	22.87	30.16	-0.04	7.47
52.384	22.89	30.18	-0.04	7.47
52.416	22.89	30.18	0.05	7.56
52.448	22.89	30.18	0.05	7.56
52.480	22.90	30.19	0.05	7.56
52.512	22.90	30.19	-0.02	7.49
52.544	22.90	30.19	-0.02	7.49
52.576	22.82	30.11	-0.02	7.49
52.608	22.82	30.11	-0.01	7.50
52.640	22.82	30.11	-0.01	7.50
52.672	22.88	30.17	-0.01	7.50
52.704	22.88	30.17	0.05	7.56
52.736	22.88	30.17	0.05	7.56
52.768	22.85	30.14	0.05	7.56
52.800	22.85	30.14	-0.04	7.47
52.832	22.85	30.14	-0.04	7.47
52.864	22.85	30.14	-0.04	7.47
52.896	22.85	30.14	0.05	7.56
52.928	22.85	30.14	0.05	7.56
52.960	22.85	30.14	0.05	7.56
52.992	22.85	30.14	-0.01	7.50
53.024	22.85	30.14	-0.01	7.50
53.056	22.89	30.18	-0.01	7.50
53.088	22.89	30.18	-0.01	7.50
53.120	22.89	30.18	-0.01	7.50
53.152	22.92	30.21	-0.01	7.50
53.184	22.92	30.21	0.05	7.56
53.216	22.92	30.21	0.05	7.56
53.248	22.90	30.19	0.05	7.56
53.280	22.90	30.19	-0.04	7.47
53.312	22.90	30.19	-0.04	7.47
53.344	22.87	30.15	-0.04	7.47
53.376	22.87	30.15	0.05	7.56
53.408	22.87	30.15	0.05	7.56
53.440	22.88	30.17	0.05	7.56
53.472	22.88	30.17	-0.01	7.50
53.504	22.88	30.17	-0.01	7.50
53.536	22.86	30.14	-0.01	7.50
53.568	22.86	30.14	-0.02	7.49
53.600	22.86	30.14	-0.02	7.49
53.632	22.89	30.17	-0.02	7.49
53.664	22.89	30.17	0.06	7.57
53.696	22.89	30.17	0.06	7.57
53.728	22.87	30.15	0.06	7.57
53.760	22.87	30.15	-0.04	7.47
53.792	22.87	30.15	-0.04	7.47
53.824	22.88	30.17	-0.04	7.47
53.856	22.88	30.17	0.05	7.56
53.888	22.88	30.17	0.05	7.56
53.920	22.87	30.15	0.05	7.56
53.952	22.87	30.15	-0.00	7.51
53.984	22.87	30.15	-0.00	7.51
54.016	22.87	30.16	-0.00	7.51
54.048	22.87	30.16	-0.02	7.48
54.080	22.87	30.16	-0.02	7.48
54.112	22.93	30.22	-0.02	7.48
54.144	22.93	30.22	0.06	7.57
54.176	22.93	30.22	0.06	7.57
54.208	22.90	30.19	0.06	7.57
54.240	22.90	30.19	-0.04	7.47
54.272	22.90	30.19	-0.04	7.47
54.304	22.89	30.18	-0.04	7.47
54.336	22.89	30.18	0.05	7.55
54.368	22.89	30.18	0.05	7.55
54.400	22.83	30.12	0.05	7.55
54.432	22.83	30.12	0.01	7.52
54.464	22.83	30.12	0.01	7.52
54.496	22.86	30.15	0.01	7.52
54.528	22.86	30.15	-0.03	7.48
54.560	22.86	30.15	-0.03	7.48
54.592	22.85	30.14	-0.03	7.48
54.624	22.85	30.14	0.06	7.57
54.656	22.85	30.14	0.06	7.57
54.688	22.84	30.13	0.06	7.57
54.720	22.84	30.13	-0.03	7.48
54.752	22.84	30.13	-0.03	7.48
54.784	22.85	30.14	-0.03	7.48
54.816	22.85	30.14	0.04	7.55
54.848	22.85	30.14	0.04	7.55
54.880	22.84	30.13	0.04	7.55
54.912	22.84	30.13	0.02	7.53
54.944	22.84	30.13	0.02	7.53
54.976	22.87	30.16	0.02	7.53
55.008	22.87	30.16	-0.03	7.48
55.040	22.87	30.16	-0.03	7.48
55.072	22.86	30.15	-0.03	7.48
55.104	22.86	30.15	0.06	7.57
55.136	22.86	30.15	0.06	7.57
55.168	22.86	30.15	0.06	7.57
55.200	22.86	30.15	-0.03	7.48
55.232	22.86	30.15	-0.03	7.48
55.264	22.82	30.11	-0.03	7.48
55.296	22.82	30.11	0.04	7.55
55.328	22.82	30.11	0.04	7.55
55.360	22.83	30.12	0.04	7.55
55.392	22.83	30.12	0.03	7.54
55.424	22.83	30.12	0.03	7.54
55.456	22.85	30.14	0.03	7.54
55.488	22.85	30.14	-0.03	7.48
55.520	22.85	30.14	-0.03	7.48
55.552	22.85	30.14	-0.03	7.48
55.584	22.85	30.14	0.06	7.57
55.616	22.85	30.14	0.06	7.57
55.648	22.87	30.16	0.06	7.57
55.680	22.87	30.16	-0.03	7.48
55.712	22.87	30.16	-0.03	7.48
55.744	22.90	30.19	-0.03	7.48
55.776	22.90	30.19	0.03	7.54
55.808	22.90	30.19	0.03	7.54
55.840	22.89	30.18	0.03	7.54
55.872	22.89	30.18	0.04	7.54
55.904	22.89	30.18	0.04	7.54
55.936	22.90	30.19	0.04	7.54
55.968	22.90	30.19	-0.04	7.47
56.000	22.90	30.19	-0.04	7.47
56.032	22.86	30.14	-0.04	7.47
56.064	22.86	30.14	0.06	7.57
56.096	22.86	30.14	0.06	7.57
56.128	22.88	30.16	0.06	7.57
56.160	22.88	30.16	-0.03	7.48
56.192	22.88	30.16	-0.03	7.48
56.224	22.87	30.16	-0.03	7.48
56.256	22.87	30.16	0.02	7.53
56.288	22.87	30.16	0.02	7.53
56.320	22.88	30.17	0.02	7.53
56.352	22.88	30.17	0.04	7.55
56.384	22.88	30.17	0.04	7.55
56.416	22.85	30.14	0.04	7.55
56.448	22.85	30.14	-0.04	7.47
56.480	22.85	30.14	-0.04	7.47
56.512	22.87	30.16	-0.04	7.47
56.544	22.87	30.16	0.06	7.57
56.576	22.87	30.16	0.06	7.57
56.608	22.90	30.19	0.06	7.57
56.640	22.90	30.19	-0.03	7.48
56.672	22.90	30.19	-0.03	7.48
56.704	22.86	30.15	-0.03	7.48
56.736	22.86	30.15	0.01	7.52
56.768	22.86	30.15	0.01	7.52
56.800	22.91	30.20	0.01	7.52
56.832	22.91	30.20	0.05	7.56
56.864	22.91	30.20	0.05	7.56
56.896	22.86	30.15	0.05	7.56
56.928	22.86	30.15	-0.04	7.47
56.960	22.86	30.15	-0.04	7.47
56.992	22.86	30.15	-0.04	7.47
57.024	22.86	30.15	0.05	7.56
57.056	22.86	30.15	0.05	7.56
57.088	22.83	30.11	0.05	7.56
57.120	22.83	30.11	-0.02	7.49
57.152	22.83	30.11	-0.02	7.49
57.184	22.79	30.08	-0.02	7.49
57.216	22.79	30.08	0.00	7.51
57.248	22.79	30.08	0.00	7.51
57.280	22.85	30.14	0.00	7.51
57.312	22.85	30.14	0.05	7.56
57.344	22.85	30.14	0.05	7.56
57.376	22.89	30.17	0.05	7.56
57.408	22.89	30.17	-0.05	7.46
57.440	22.89	30.17	-0.05	7.46
57.472	22.86	30.14	-0.05	7.46
57.504	22.86	30.14	0.05	7.56
57.536	22.86	30.14	0.05	7.56
57.568	22.89	30.18	0.05	7.56
57.600	22.89	30.18	-0.02	7.49
57.632	22.89	30.18	-0.02	7.49
57.664	22.87	30.16	-0.02	7.49
57.696	22.87	30.16	-0.01	7.50
57.728	22.87	30.16	-0.01	7.50
57.760	22.92	30.21	-0.01	7.50
57.792	22.92	30.21	0.05	7.56
57.824	22.92	30.21	0.05	7.56
57.856	22.85	30.14	0.05	7.56
57.888	22.85	30.14	-0.04	7.47
57.920	22.85	30.14	-0.04	7.47
57.952	22.87	30.16	-0.04	7.47
57.984	22.87	30.16	0.05	7.56
58.016	22.87	30.16	0.05	7.56
58.048	22.86	30.15	0.05	7.56
58.080	22.86	30.15	-0.01	7.50
58.112	22.86	30.15	-0.01	7.50
58.144	22.83	30.12	-0.01	7.50
58.176	22.83	30.12	-0.02	7.49
58.208	22.83	30.12	-0.02	7.49
58.240	22.86	30.15	-0.02	7.49
58.272	22.86	30.15	0.05	7.56
58.304	22.86	30.15	0.05	7.56
58.336	22.89	30.17	0.05	7.56
58.368	22.89	30.17	-0.04	7.47
58.400	22.89	30.17	-0.04	7.47
58.432	22.85	30.14	-0.04	7.47
58.464	22.85	30.14	0.05	7.55
58.496	22.85	30.14	0.05	7.55
58.528	22.90	30.19	0.05	7.55
58.560	22.90	30.19	0.00	7.51
58.592	22.90	30.19	0.00	7.51
58.624	22.87	30.16	0.00	7.51
58.656	22.87	30.16	-0.02	7.48
58.688	22.87	30.16	-0.02	7.48
58.720	22.91	30.20	-0.02	7.48
58.752	22.91	30.20	0.06	7.57
58.784	22.91	30.20	0.06	7.57
58.816	22.88	30.17	0.06	7.57
58.848	22.88	30.17	-0.03	7.48
58.880	22.88	30.17	-0.03	7.48
58.912	22.85	30.13	-0.03	7.48
58.944	22.85	30.13	0.05	7.55
58.976	22.85	30.13	0.05	7.55
59.008	22.85	30.14	0.05	7.55
59.040	22.85	30.14	0.01	7.52
59.072	22.85	30.14	0.01	7.52
59.104	22.84	30.12	0.01	7.52
59.136	22.84	30.12	-0.03	7.48
59.168	22.84	30.12	-0.03	7.48
59.200	22.83	30.12	-0.03	7.48
59.232	22.83	30.12	0.07	7.58
59.264	22.83	30.12	0.07	7.58
59.296	22.87	30.16	0.07	7.58
59.328	22.87	30.16	-0.03	7.48
59.360	22.87	30.16	-0.03	7.48
59.392	22.85	30.14	-0.03	7.48
59.424	22.85	30.14	0.04	7.55
59.456	22.85	30.14	0.04	7.55
59.488	22.88	30.17	0.04	7.55
59.520	22.88	30.17	0.02	7.53
59.552	22.88	30.17	0.02	7.53
59.584	22.86	30.15	0.02	7.53
59.616	22.86	30.15	-0.03	7.48
59.648	22.86	30.15	-0.03	7.48
59.680	22.86	30.15	-0.03	7.48
59.712	22.86	30.15	0.06	7.57
59.744	22.86	30.15	0.06	7.57
59.776	22.85	30.14	0.06	7.57
59.808	22.85	30.14	-0.03	7.48
59.840	22.85	30.14	-0.03	7.48
59.872	22.83	30.12	-0.03	7.48
59.904	22.83	30.12	0.04	7.54
59.936	22.83	30.12	0.04	7.54
59.968	22.80	30.09	0.04	7.54
60.000	22.80	30.09	0.03	7.54
60.032	22.80	30.09	0.03	7.54
60.064	22.87	30.16	0.03	7.54
60.096	22.87	30.16	-0.04	7.47
60.128	22.87	30.16	-0.04	7.47
60.160	22.88	30.17	-0.04	7.47
60.192	22.88	30.17	0.06	7.57
60.224	22.88	30.17	0.06	7.57
60.256	22.86	30.14	0.06	7.57
60.288	22.86	30.14	-0.03	7.48
60.320	22.86	30.14	-0.03	7.48
60.352	22.88	30.17	-0.03	7.48
60.384	22.88	30.17	0.03	7.54
60.416	22.88	30.17	0.03	7.54
60.448	22.86	30.15	0.03	7.54
60.480	22.86	30.15	0.04	7.55
60.512	22.86	30.15	0.04	7.55
60.544	22.87	30.16	0.04	7.55
60.576	22.87	30.16	-0.04	7.47
60.608	22.87	30.16	-0.04	7.47
60.640	22.86	30.15	-0.04	7.47
60.672	22.86	30.15	0.06	7.57
60.704	22.86	30.15	0.06	7.57
60.736	22.86	30.15	0.06	7.57
60.768	22.86	30.15	-0.03	7.48
60.800	22.86	30.15	-0.03	7.48
60.832	22.86	30.15	-0.03	7.48
60.864	22.86	30.15	0.01	7.52
60.896	22.86	30.15	0.01	7.52
60.928	22.85	30.14	0.01	7.52
60.960	22.85	30.14	0.05	7.55
60.992	22.85	30.14	0.05	7.55
61.024	22.86	30.15	0.05	7.55
61.056	22.86	30.15	-0.04	7.47
61.088	22.86	30.15	-0.04	7.47
61.120	22.85	30.14	-0.04	7.47
61.152	22.85	30.14	0.05	7.56
61.184	22.85	30.14	0.05	7.56
61.216	22.86	30.15	0.05	7.56
61.248	22.86	30.15	-0.03	7.48
61.280	22.86	30.15	-0.03	7.48
61.312	22.86	30.15	-0.03	7.48
61.344	22.86	30.15	0.00	7.51
61.376	22.86	30.15	0.00	7.51
61.408	22.88	30.17	0.00	7.51
61.440	22.88	30.17	0.05	7.56
61.472	22.88	30.17	0.05	7.56
61.504	22.90	30.19	0.05	7.56
61.536	22.90	30.19	-0.04	7.47
61.568	22.90	30.19	-0.04	7.47
61.600	22.86	30.15	-0.04	7.47
61.632	22.86	30.15	0.05	7.56
61.664	22.86	30.15	0.05	7.56
61.696	22.90	30.19	0.05	7.56
61.728	22.90	30.19	-0.02	7.49
61.760	22.90	30.19	-0.02	7.49
61.792	22.86	30.15	-0.02	7.49
61.824	22.86	30.15	-0.01	7.50
61.856	22.86	30.15	-0.01	7.50
61.888	22.86	30.15	-0.01	7.50
61.920	22.86	30.15	0.05	7.56
61.952	22.86	30.15	0.05	7.56
61.984	22.87	30.16	0.05	7.56
62.016	22.87	30.16	-0.05	7.46
62.048	22.87	30.16	-0.05	7.46
62.080	22.88	30.16	-0.05	7.46
62.112	22.88	30.16	0.05	7.55
62.144	22.88	30.16	0.05	7.55
62.176	22.87	30.15	0.05	7.55
62.208	22.87	30.15	-0.01	7.50
62.240	22.87	30.15	-0.01	7.50
62.272	22.90	30.19	-0.01	7.50
62.304	22.90	30.19	-0.02	7.49
62.336	22.90	30.19	-0.02	7.49
62.368	22.91	30.20	-0.02	7.49
62.400	22.91	30.20	0.06	7.57
62.432	22.91	30.20	0.06	7.57
62.464	22.89	30.17	0.06	7.57
62.496	22.89	30.17	-0.04	7.47
62.528	22.89	30.17	-0.04	7.47
62.560	22.87	30.16	-0.04	7.47
62.592	22.87	30.16	0.05	7.55
62.624	22.87	30.16	0.05	7.55
62.656	22.84	30.13	0.05	7.55
62.688	22.84	30.13	0.00	7.51
62.720	22.84	30.13	0.00	7.51
62.752	22.84	30.13	0.00	7.51
62.784	22.84	30.13	-0.02	7.49
62.816	22.84	30.13	-0.02	7.49
62.848	22.88	30.17	-0.02	7.49
62.880	22.88	30.17	0.06	7.57
62.912	22.88	30.17	0.06	7.57
62.944	22.85	30.13	0.06	7.57
62.976	22.85	30.13	-0.04	7.47
63.008	22.85	30.13	-0.04	7.47
63.040	22.84	30.13	-0.04	7.47
63.072	22.84	30.13	0.05	7.55
63.104	22.84	30.13	0.05	7.55
63.136	22.86	30.14	0.05	7.55
63.168	22.86	30.14	0.01	7.52
63.200	22.86	30.14	0.01	7.52
63.232	22.85	30.14	0.01	7.52
63.264	22.85	30.14	-0.03	7.48
63.296	22.85	30.14	-0.03	7.48
63.328	22.89	30.18	-0.03	7.48
63.360	22.89	30.18	0.07	7.58
63.392	22.89	30.18	0.07	7.58
63.424	22.87	30.16	0.07	7.58
63.456	22.87	30.16	-0.03	7.48
63.488	22.87	30.16	-0.03	7.48
63.520	22.86	30.14	-0.03	7.48
63.552	22.86	30.14	0.04	7.55
63.584	22.86	30.14	0.04	7.55
63.616	22.83	30.12	0.04	7.55
63.648	22.83	30.12	0.02	7.53
63.680	22.83	30.12	0.02	7.53
63.712	22.86	30.15	0.02	7.53
63.744	22.86	30.15	-0.03	7.48
63.776	22.86	30.15	-0.03	7.48
63.808	22.87	30.16	-0.03	7.48
63.840	22.87	30.16	0.06	7.57
63.872	22.87	30.16	0.06	7.57
63.904	22.90	30.19	0.06	7.57
63.936	22.90	30.19	-0.03	7.48
63.968	22.90	30.19	-0.03	7.48
64.000	22.86	30.14	-0.03	7.48
64.032	22.86	30.14	0.04	7.54
64.064	22.86	30.14	0.04	7.54
64.096	22.86	30.15	0.04	7.54
64.128	22.86	30.15	0.03	7.54
64.160	22.86	30.15	0.03	7.54
64.192	22.89	30.18	0.03	7.54
64.224	22.89	30.18	-0.04	7.47
64.256	22.89	30.18	-0.04	7.47
64.288	22.87	30.15	-0.04	7.47
64.320	22.87	30.15	0.06	7.57
64.352	22.87	30.15	0.06	7.57
64.384	22.87	30.16	0.06	7.57
64.416	22.87	30.16	-0.02	7.48
64.448	22.87	30.16	-0.02	7.48
64.480	22.86	30.14	-0.02	7.48
64.512	22.86	30.14	0.03	7.54
64.544	22.86	30.14	0.03	7.54
64.576	22.85	30.14	0.03	7.54
64.608	22.85	30.14	0.04	7.55
64.640	22.85	30.14	0.04	7.55
64.672	22.83	30.12	0.04	7.55
64.704	22.83	30.12	-0.04	7.47
64.736	22.83	30.12	-0.04	7.47
64.768	22.90	30.19	-0.04	7.47
64.800	22.90	30.19	0.06	7.57
64.832	22.90	30.19	0.06	7.57
64.864	22.86	30.15	0.06	7.57
64.896	22.86	30.15	-0.03	7.48
64.928	22.86	30.15	-0.03	7.48
64.960	22.89	30.18	-0.03	7.48
64.992	22.89	30.18	0.02	7.53
65.024	22.89	30.18	0.02	7.53
65.056	22.88	30.17	0.02	7.53
65.088	22.88	30.17	0.05	7.56
65.120	22.88	30.17	0.05	7.56
65.152	22.88	30.17	0.05	7.56
65.184	22.88	30.17	-0.04	7.47
65.216	22.88	30.17	-0.04	7.47
65.248	22.88	30.17	-0.04	7.47
65.280	22.88	30.17	0.05	7.56
65.312	22.88	30.17	0.05	7.56
65.344	22.85	30.14	0.05	7.56
65.376	22.85	30.14	-0.02	7.49
65.408	22.85	30.14	-0.02	7.49
65.440	22.83	30.12	-0.02	7.49
65.472	22.83	30.12	0.01	7.52
65.504	22.83	30.12	0.01	7.52
65.536	22.83	30.12	0.01	7.52
65.568	22.83	30.12	0.05	7.55
65.600	22.83	30.12	0.05	7.55
65.632	22.86	30.14	0.05	7.55
65.664	22.86	30.14	-0.05	7.46
65.696	22.86	30.14	-0.05	7.46
65.728	22.86	30.15	-0.05	7.46
65.760	22.86	30.15	0.05	7.56
65.792	22.86	30.15	0.05	7.56
65.824	22.87	30.15	0.05	7.56
65.856	22.87	30.15	-0.02	7.49
65.888	22.87	30.15	-0.02	7.49
65.920	22.88	30.16	-0.02	7.49
65.952	22.88	30.16	-0.00	7.50
65.984	22.88	30.16	-0.00	7.50
66.016	22.85	30.14	-0.00	7.50
66.048	22.85	30.14	0.05	7.56
66.080	22.85	30.14	0.05	7.56
66.112	22.90	30.19	0.05	7.56
66.144	22.90	30.19	-0.04	7.47
66.176	22.90	30.19	-0.04	7.47
66.208	22.87	30.16	-0.04	7.47
66.240	22.87	30.16	0.05	7.56
66.272	22.87	30.16	0.05	7.56
66.304	22.87	30.15	0.05	7.56
66.336	22.87	30.15	-0.02	7.49
66.368	22.87	30.15	-0.02	7.49
66.400	22.84	30.13	-0.02	7.49
66.432	22.84	30.13	-0.01	7.50
66.464	22.84	30.13	-0.01	7.50
66.496	22.83	30.12	-0.01	7.50
66.528	22.83	30.12	0.05	7.56
66.560	22.83	30.12	0.05	7.56
66.592	22.85	30.14	0.05	7.56
66.624	22.85	30.14	-0.04	7.47
66.656	22.85	30.14	-0.04	7.47
66.688	22.84	30.13	-0.04	7.47
66.720	22.84	30.13	0.05	7.56
66.752	22.84	30.13	0.05	7.56
66.784	22.83	30.12	0.05	7.56
66.816	22.83	30.12	-0.01	7.50
66.848	22.83	30.12	-0.01	7.50
66.880	22.86	30.15	-0.01	7.50
66.912	22.86	30.15	-0.02	7.49
66.944	22.86	30.15	-0.02	7.49
66.976	22.86	30.15	-0.02	7.49
67.008	22.86	30.15	0.06	7.57
67.040	22.86	30.15	0.06	7.57
67.072	22.88	30.17	0.06	7.57
67.104	22.88	30.17	-0.04	7.47
67.136	22.88	30.17	-0.04	7.47
67.168	22.88	30.16	-0.04	7.47
67.200	22.88	30.16	0.05	7.56
67.232	22.88	30.16	0.05	7.56
67.264	22.85	30.14	0.05	7.56
67.296	22.85	30.14	-0.00	7.51
67.328	22.85	30.14	-0.00	7.51
67.360	22.87	30.15	-0.00	7.51
67.392	22.87	30.15	-0.02	7.48
67.424	22.87	30.15	-0.02	7.48
67.456	22.89	30.17	-0.02	7.48
67.488	22.89	30.17	0.06	7.57
67.520	22.89	30.17	0.06	7.57
67.552	22.87	30.16	0.06	7.57
67.584	22.87	30.16	-0.03	7.48
67.616	22.87	30.16	-0.03	7.48
67.648	22.85	30.14	-0.03	7.48
67.680	22.85	30.14	0.05	7.56
67.712	22.85	30.14	0.05	7.56
67.744	22.88	30.17	0.05	7.56
67.776	22.88	30.17	0.01	7.52
67.808	22.88	30.17	0.01	7.52
67.840	22.87	30.15	0.01	7.52
67.872	22.87	30.15	-0.02	7.49
67.904	22.87	30.15	-0.02	7.49
67.936	22.87	30.16	-0.02	7.49
67.968	22.87	30.16	0.06	7.57
68.000	22.87	30.16	0.06	7.57
68.032	22.89	30.18	0.06	7.57
68.064	22.89	30.18	-0.03	7.48
68.096	22.89	30.18	-0.03	7.48
68.128	22.87	30.16	-0.03	7.48
68.160	22.87	30.16	0.04	7.55
68.192	22.87	30.16	0.04	7.55
68.224	22.83	30.12	0.04	7.55
68.256	22.83	30.12	0.02	7.53
68.288	22.83	30.12	0.02	7.53
68.320	22.84	30.13	0.02	7.53
68.352	22.84	30.13	-0.03	7.48
68.384	22.84	30.13	-0.03	7.48
68.416	22.86	30.15	-0.03	7.48
68.448	22.86	30.15	0.06	7.57
68.480	22.86	30.15	0.06	7.57
68.512	22.88	30.17	0.06	7.57
68.544	22.88	30.17	-0.03	7.48
68.576	22.88	30.17	-0.03	7.48
68.608	22.88	30.17	-0.03	7.48
68.640	22.88	30.17	0.04	7.55
68.672	22.88	30.17	0.04	7.55
68.704	22.84	30.13	0.04	7.55
68.736	22.84	30.13	0.02	7.53
68.768	22.84	30.13	0.02	7.53
68.800	22.82	30.11	0.02	7.53
68.832	22.82	30.11	-0.03	7.48
68.864	22.82	30.11	-0.03	7.48
68.896	22.88	30.17	-0.03	7.48
68.928	22.88	30.17	0.06	7.57
68.960	22.88	30.17	0.06	7.57
68.992	22.87	30.16	0.06	7.57
69.024	22.87	30.16	-0.02	7.48
69.056	22.87	30.16	-0.02	7.48
69.088	22.88	30.16	-0.02	7.48
69.120	22.88	30.16	0.04	7.55
69.152	22.88	30.16	0.04	7.55
69.184	22.84	30.13	0.04	7.55
69.216	22.84	30.13	0.03	7.54
69.248	22.84	30.13	0.03	7.54
69.280	22.85	30.13	0.03	7.54
69.312	22.85	30.13	-0.03	7.48
69.344	22.85	30.13	-0.03	7.48
69.376	22.88	30.17	-0.03	7.48
69.408	22.88	30.17	0.06	7.57
69.440	22.88	30.17	0.06	7.57
69.472	22.86	30.15	0.06	7.57
69.504	22.86	30.15	-0.03	7.48
69.536	22.86	30.15	-0.03	7.48
69.568	22.87	30.16	-0.03	7.48
69.600	22.87	30.16	0.03	7.54
69.632	22.87	30.16	0.03	7.54
69.664	22.88	30.16	0.03	7.54
69.696	22.88	30.16	0.04	7.55
69.728	22.88	30.16	0.04	7.55
69.760	22.86	30.15	0.04	7.55
69.792	22.86	30.15	-0.03	7.48
69.824	22.86	30.15	-0.03	7.48
69.856	22.89	30.18	-0.03	7.48
69.888	22.89	30.18	0.07	7.58
69.920	22.89	30.18	0.07	7.58
69.952	22.88	30.17	0.07	7.58
69.984	22.88	30.17	-0.03	7.48
70.016	22.88	30.17	-0.03	7.48
70.048	22.85	30.14	-0.03	7.48
70.080	22.85	30.14	0.03	7.54
70.112	22.85	30.14	0.03	7.54
70.144	22.85	30.14	0.03	7.54
70.176	22.85	30.14	0.04	7.55
70.208	22.85	30.14	0.04	7.55
70.240	22.83	30.12	0.04	7.55
70.272	22.83	30.12	-0.04	7.47
70.304	22.83	30.12	-0.04	7.47
70.336	22.87	30.16	-0.04	7.47
70.368	22.87	30.16	0.06	7.57
70.400	22.87	30.16	0.06	7.57
70.432	22.90	30.19	0.06	7.57
70.464	22.90	30.19	-0.03	7.48
70.496	22.90	30.19	-0.03	7.48
70.528	22.86	30.15	-0.03	7.48
70.560	22.86	30.15	0.02	7.53
70.592	22.86	30.15	0.02	7.53
70.624	22.89	30.18	0.02	7.53
70.656	22.89	30.18	0.05	7.56
70.688	22.89	30.18	0.05	7.56
70.720	22.85	30.14	0.05	7.56
70.752	22.85	30.14	-0.04	7.47
70.784	22.85	30.14	-0.04	7.47
70.816	22.90	30.19	-0.04	7.47
70.848	22.90	30.19	0.06	7.57
70.880	22.90	30.19	0.06	7.57
70.912	22.86	30.14	0.06	7.57
70.944	22.86	30.14	-0.02	7.48
70.976	22.86	30.14	-0.02	7.48
71.008	22.86	30.15	-0.02	7.48
71.040	22.86	30.15	0.02	7.53
71.072	22.86	30.15	0.02	7.53
71.104	22.84	30.12	0.02	7.53
71.136	22.84	30.12	0.04	7.55
71.168	22.84	30.12	0.04	7.55
71.200	22.89	30.18	0.04	7.55
71.232	22.89	30.18	-0.04	7.47
71.264	22.89	30.18	-0.04	7.47
71.296	22.87	30.16	-0.04	7.47
71.328	22.87	30.16	0.05	7.56
71.360	22.87	30.16	0.05	7.56
71.392	22.88	30.17	0.05	7.56
71.424	22.88	30.17	-0.02	7.48
71.456	22.88	30.17	-0.02	7.48
71.488	22.88	30.16	-0.02	7.48
71.520	22.88	30.16	0.01	7.52
71.552	22.88	30.16	0.01	7.52
71.584	22.84	30.13	0.01	7.52
71.616	22.84	30.13	0.05	7.56
71.648	22.84	30.13	0.05	7.56
71.680	22.90	30.19	0.05	7.56
71.712	22.90	30.19	-0.04	7.47
71.744	22.90	30.19	-0.04	7.47
71.776	22.88	30.17	-0.04	7.47
71.808	22.88	30.17	0.06	7.57
71.840	22.88	30.17	0.06	7.57
71.872	22.89	30.18	0.06	7.57
71.904	22.89	30.18	-0.02	7.48
71.936	22.89	30.18	-0.02	7.48
71.968	22.86	30.15	-0.02	7.48
72.000	22.86	30.15	0.00	7.51
72.032	22.86	30.15	0.00	7.51
72.064	22.82	30.11	0.00	7.51
72.096	22.82	30.11	0.05	7.56
72.128	22.82	30.11	0.05	7.56
72.160	22.90	30.18	0.05	7.56
72.192	22.90	30.18	-0.04	7.47
72.224	22.90	30.18	-0.04	7.47
72.256	22.89	30.18	-0.04	7.47
72.288	22.89	30.18	0.05	7.56
72.320	22.89	30.18	0.05	7.56
72.352	22.87	30.16	0.05	7.56
72.384	22.87	30.16	-0.02	7.49
72.416	22.87	30.16	-0.02	7.49
72.448	22.88	30.17	-0.02	7.49
72.480	22.88	30.17	-0.00	7.51
72.512	22.88	30.17	-0.00	7.51
72.544	22.85	30.14	-0.00	7.51
72.576	22.85	30.14	0.05	7.56
72.608	22.85	30.14	0.05	7.56
72.640	22.91	30.19	0.05	7.56
72.672	22.91	30.19	-0.04	7.47
72.704	22.91	30.19	-0.04	7.47
72.736	22.89	30.18	-0.04	7.47
72.768	22.89	30.18	0.05	7.56
72.800	22.89	30.18	0.05	7.56
72.832	22.85	30.14	0.05	7.56
72.864	22.85	30.14	-0.02	7.49
72.896	22.85	30.14	-0.02	7.49
72.928	22.88	30.16	-0.02	7.49
72.960	22.88	30.16	-0.00	7.50
72.992	22.88	30.16	-0.00	7.50
73.024	22.84	30.12	-0.00	7.50
73.056	22.84	30.12	0.05	7.56
73.088	22.84	30.12	0.05	7.56
73.120	22.84	30.13	0.05	7.56
73.152	22.84	30.13	-0.04	7.47
73.184	22.84	30.13	-0.04	7.47
73.216	22.86	30.15	-0.04	7.47
73.248	22.86	30.15	0.05	7.56
73.280	22.86	30.15	0.05	7.56
73.312	22.85	30.13	0.05	7.56
73.344	22.85	30.13	-0.01	7.49
73.376	22.85	30.13	-0.01	7.49
73.408	22.86	30.15	-0.01	7.49
73.440	22.86	30.15	-0.01	7.50
73.472	22.86	30.15	-0.01	7.50
73.504	22.86	30.15	-0.01	7.50
73.536	22.86	30.15	0.05	7.56
73.568	22.86	30.15	0.05	7.56
73.600	22.89	30.18	0.05	7.56
73.632	22.89	30.18	-0.04	7.47
73.664	22.89	30.18	-0.04	7.47
73.696	22.88	30.17	-0.04	7.47
73.728	22.88	30.17	0.05	7.56
73.760	22.88	30.17	0.05	7.56
73.792	22.86	30.15	0.05	7.56
73.824	22.86	30.15	-0.01	7.50
73.856	22.86	30.15	-0.01	7.50
73.888	22.85	30.14	-0.01	7.50
73.920	22.85	30.14	-0.01	7.50
73.952	22.85	30.14	-0.01	7.50
73.984	22.89	30.18	-0.01	7.50
74.016	22.89	30.18	0.05	7.56
74.048	22.89	30.18	0.05	7.56
74.080	22.88	30.17	0.05	7.56
74.112	22.88	30.17	-0.04	7.47
74.144	22.88	30.17	-0.04	7.47
74.176	22.88	30.17	-0.04	7.47
74.208	22.88	30.17	0.05	7.56
74.240	22.88	30.17	0.05	7.56
74.272	22.89	30.18	0.05	7.56
74.304	22.89	30.18	-0.01	7.50
74.336	22.89	30.18	-0.01	7.50
74.368	22.87	30.16	-0.01	7.50
74.400	22.87	30.16	-0.01	7.49
74.432	22.87	30.16	-0.01	7.49
74.464	22.88	30.17	-0.01	7.49
74.496	22.88	30.17	0.05	7.56
74.528	22.88	30.17	0.05	7.56
74.560	22.87	30.16	0.05	7.56
74.592	22.87	30.16	-0.04	7.47
74.624	22.87	30.16	-0.04	7.47
74.656	22.87	30.16	-0.04	7.47
74.688	22.87	30.16	0.05	7.56
74.720	22.87	30.16	0.05	7.56
74.752	22.85	30.14	0.05	7.56
74.784	22.85	30.14	-0.01	7.50
74.816	22.85	30.14	-0.01	7.50
74.848	22.81	30.10	-0.01	7.50
74.880	22.81	30.10	-0.02	7.49
74.912	22.81	30.10	-0.02	7.49
74.944	22.90	30.19	-0.02	7.49
74.976	22.90	30.19	0.06	7.57
75.008	22.90	30.19	0.06	7.57
75.040	22.89	30.18	0.06	7.57
75.072	22.89	30.18	-0.04	7.47
75.104	22.89	30.18	-0.04	7.47
75.136	22.87	30.15	-0.04	7.47
75.168	22.87	30.15	0.05	7.56
75.200	22.87	30.15	0.05	7.56
75.232	22.89	30.17	0.05	7.56
75.264	22.89	30.17	-0.00	7.51
75.296	22.89	30.17	-0.00	7.51
75.328	22.82	30.11	-0.00	7.51
75.360	22.82	30.11	-0.02	7.49
75.392	22.82	30.11	-0.02	7.49
75.424	22.87	30.16	-0.02	7.49
75.456	22.87	30.16	0.06	7.57
75.488	22.87	30.16	0.06	7.57
75.520	22.86	30.15	0.06	7.57
75.552	22.86	30.15	-0.04	7.47
75.584	22.86	30.15	-0.04	7.47
75.616	22.85	30.14	-0.04	7.47
75.648	22.85	30.14	0.05	7.56
75.680	22.85	30.14	0.05	7.56
75.712	22.83	30.12	0.05	7.56
75.744	22.83	30.12	0.00	7.51
75.776	22.83	30.12	0.00	7.51
75.808	22.86	30.15	0.00	7.51
75.840	22.86	30.15	-0.02	7.49
75.872	22.86	30.15	-0.02	7.49
75.904	22.86	30.15	-0.02	7.49
75.936	22.86	30.15	0.06	7.57
75.968	22.86	30.15	0.06	7.57
76.000	22.90	30.19	0.06	7.57
76.032	22.90	30.19	-0.04	7.47
76.064	22.90	30.19	-0.04	7.47
76.096	22.86	30.15	-0.04	7.47
76.128	22.86	30.15	0.05	7.55
76.160	22.86	30.15	0.05	7.55
76.192	22.92	30.21	0.05	7.55
76.224	22.92	30.21	0.01	7.52
76.256	22.92	30.21	0.01	7.52
76.288	22.87	30.16	0.01	7.52
76.320	22.87	30.16	-0.02	7.49
76.352	22.87	30.16	-0.02	7.49
76.384	22.86	30.14	-0.02	7.49
76.416	22.86	30.14	0.06	7.57
76.448	22.86	30.14	0.06	7.57
76.480	22.90	30.19	0.06	7.57
76.512	22.90	30.19	-0.03	7.48
76.544	22.90	30.19	-0.03	7.48
76.576	22.86	30.15	-0.03	7.48
76.608	22.86	30.15	0.05	7.56
76.640	22.86	30.15	0.05	7.56
76.672	22.83	30.12	0.05	7.56
76.704	22.83	30.12	0.01	7.52
76.736	22.83	30.12	0.01	7.52
76.768	22.88	30.17	0.01	7.52
76.800	22.88	30.17	-0.02	7.48
76.832	22.88	30.17	-0.02	7.48
76.864	22.82	30.10	-0.02	7.48
76.896	22.82	30.10	0.06	7.57
76.928	22.82	30.10	0.06	7.57
76.960	22.85	30.14	0.06	7.57
76.992	22.85	30.14	-0.03	7.48
77.024	22.85	30.14	-0.03	7.48
77.056	22.88	30.17	-0.03	7.48
77.088	22.88	30.17	0.05	7.55
77.120	22.88	30.17	0.05	7.55
77.152	22.83	30.12	0.05	7.55
77.184	22.83	30.12	0.01	7.52
77.216	22.83	30.12	0.01	7.52
77.248	22.86	30.15	0.01	7.52
77.280	22.86	30.15	-0.02	7.48
77.312	22.86	30.15	-0.02	7.48
77.344	22.86	30.14	-0.02	7.48
77.376	22.86	30.14	0.06	7.57
77.408	22.86	30.14	0.06	7.57
77.440	22.86	30.15	0.06	7.57
77.472	22.86	30.15	-0.03	7.48
77.504	22.86	30.15	-0.03	7.48
77.536	22.88	30.17	-0.03	7.48
77.568	22.88	30.17	0.05	7.55
77.600	22.88	30.17	0.05	7.55
77.632	22.83	30.12	0.05	7.55
77.664	22.83	30.12	0.02	7.53
77.696	22.83	30.12	0.02	7.53
77.728	22.87	30.16	0.02	7.53
77.760	22.87	30.16	-0.03	7.48
77.792	22.87	30.16	-0.03	7.48
77.824	22.90	30.19	-0.03	7.48
77.856	22.90	30.19	0.06	7.57
77.888	22.90	30.19	0.06	7.57
77.920	22.89	30.18	0.06	7.57
77.952	22.89	30.18	-0.03	7.48
77.984	22.89	30.18	-0.03	7.48
78.016	22.88	30.17	-0.03	7.48
78.048	22.88	30.17	0.04	7.55
78.080	22.88	30.17	0.04	7.55
78.112	22.87	30.15	0.04	7.55
78.144	22.87	30.15	0.02	7.53
78.176	22.87	30.15	0.02	7.53
78.208	22.89	30.18	0.02	7.53
78.240	22.89	30.18	-0.03	7.48
78.272	22.89	30.18	-0.03	7.48
78.304	22.88	30.17	-0.03	7.48
78.336	22.88	30.17	0.06	7.57
78.368	22.88	30.17	0.06	7.57
78.400	22.87	30.16	0.06	7.57
78.432	22.87	30.16	-0.03	7.48
78.464	22.87	30.16	-0.03	7.48
78.496	22.83	30.11	-0.03	7.48
78.528	22.83	30.11	0.04	7.55
78.560	22.83	30.11	0.04	7.55
78.592	22.82	30.11	0.04	7.55
78.624	22.82	30.11	0.03	7.54
78.656	22.82	30.11	0.03	7.54
78.688	22.89	30.18	0.03	7.54
78.720	22.89	30.18	-0.03	7.48
78.752	22.89	30.18	-0.03	7.48
78.784	22.86	30.15	-0.03	7.48
78.816	22.86	30.15	0.07	7.58
78.848	22.86	30.15	0.07	7.58
78.880	22.86	30.15	0.07	7.58
78.912	22.86	30.15	-0.03	7.48
78.944	22.86	30.15	-0.03	7.48
78.976	22.86	30.15	-0.03	7.48
79.008	22.86	30.15	0.04	7.55
79.040	22.86	30.15	0.04	7.55
79.072	22.87	30.15	0.04	7.55
79.104	22.87	30.15	0.03	7.54
79.136	22.87	30.15	0.03	7.54
79.168	22.89	30.17	0.03	7.54
79.200	22.89	30.17	-0.03	7.48
79.232	22.89	30.17	-0.03	7.48
79.264	22.84	30.13	-0.03	7.48
79.296	22.84	30.13	0.06	7.57
79.328	22.84	30.13	0.06	7.57
79.360	22.86	30.15	0.06	7.57
79.392	22.86	30.15	-0.02	7.48
79.424	22.86	30.15	-0.02	7.48
79.456	22.82	30.11	-0.02	7.48
79.488	22.82	30.11	0.04	7.55
79.520	22.82	30.11	0.04	7.55
79.552	22.87	30.16	0.04	7.55
79.584	22.87	30.16	0.03	7.54
79.616	22.87	30.16	0.03	7.54
79.648	22.88	30.16	0.03	7.54
79.680	22.88	30.16	-0.03	7.48
79.712	22.88	30.16	-0.03	7.48
79.744	22.89	30.17	-0.03	7.48
79.776	22.89	30.17	0.06	7.57
79.808	22.89	30.17	0.06	7.57
79.840	22.88	30.17	0.06	7.57
79.872	22.88	30.17	-0.03	7.48
79.904	22.88	30.17	-0.03	7.48
79.936	22.86	30.15	-0.03	7.48
79.968	22.86	30.15	0.04	7.54
80.000	22.86	30.15	0.04	7.54
80.032	22.87	30.16	0.04	7.54
80.064	22.87	30.16	0.04	7.55
80.096	22.87	30.16	0.04	7.55
80.128	22.88	30.17	0.04	7.55
80.160	22.88	30.17	-0.03	7.48
80.192	22.88	30.17	-0.03	7.48
80.224	22.83	30.12	-0.03	7.48
80.256	22.83	30.12	0.07	7.58
80.288	22.83	30.12	0.07	7.58
80.320	22.86	30.15	0.07	7.58
80.352	22.86	30.15	-0.03	7.48
80.384	22.86	30.15	-0.03	7.48
80.416	22.82	30.11	-0.03	7.48
80.448	22.82	30.11	0.03	7.54
80.480	22.82	30.11	0.03	7.54
80.512	22.86	30.15	0.03	7.54
80.544	22.86	30.15	0.04	7.55
80.576	22.86	30.15	0.04	7.55
80.608	22.85	30.14	0.04	7.55
80.640	22.85	30.14	-0.04	7.47
80.672	22.85	30.14	-0.04	7.47
80.704	22.89	30.18	-0.04	7.47
80.736	22.89	30.18	0.06	7.57
80.768	22.89	30.18	0.06	7.57
80.800	22.86	30.15	0.06	7.57
80.832	22.86	30.15	-0.02	7.48
80.864	22.86	30.15	-0.02	7.48
80.896	22.86	30.14	-0.02	7.48
80.928	22.86	30.14	0.03	7.54
80.960	22.86	30.14	0.03	7.54
80.992	22.88	30.16	0.03	7.54
81.024	22.88	30.16	0.04	7.55
81.056	22.88	30.16	0.04	7.55
81.088	22.86	30.15	0.04	7.55
81.120	22.86	30.15	-0.03	7.48
81.152	22.86	30.15	-0.03	7.48
81.184	22.84	30.12	-0.03	7.48
81.216	22.84	30.12	0.06	7.57
81.248	22.84	30.12	0.06	7.57
81.280	22.86	30.15	0.06	7.57
81.312	22.86	30.15	-0.02	7.48
81.344	22.86	30.15	-0.02	7.48
81.376	22.83	30.12	-0.02	7.48
81.408	22.83	30.12	0.02	7.53
81.440	22.83	30.12	0.02	7.53
81.472	22.87	30.15	0.02	7.53
81.504	22.87	30.15	0.04	7.55
81.536	22.87	30.15	0.04	7.55
81.568	22.85	30.14	0.04	7.55
81.600	22.85	30.14	-0.03	7.48
81.632	22.85	30.14	-0.03	7.48
81.664	22.86	30.15	-0.03	7.48
81.696	22.86	30.15	0.06	7.57
81.728	22.86	30.15	0.06	7.57
81.760	22.88	30.17	0.06	7.57
81.792	22.88	30.17	-0.02	7.48
81.824	22.88	30.17	-0.02	7.48
81.856	22.85	30.14	-0.02	7.48
81.888	22.85	30.14	0.02	7.53
81.920	22.85	30.14	0.02	7.53
81.952	22.84	30.13	0.02	7.53
81.984	22.84	30.13	0.05	7.55
82.016	22.84	30.13	0.05	7.55
82.048	22.85	30.14	0.05	7.55
82.080	22.85	30.14	-0.04	7.47
82.112	22.85	30.14	-0.04	7.47
82.144	22.84	30.12	-0.04	7.47
82.176	22.84	30.12	0.06	7.57
82.208	22.84	30.12	0.06	7.57
82.240	22.84	30.13	0.06	7.57
82.272	22.84	30.13	-0.03	7.48
82.304	22.84	30.13	-0.03	7.48
82.336	22.88	30.17	-0.03	7.48
82.368	22.88	30.17	0.02	7.53
82.400	22.88	30.17	0.02	7.53
82.432	22.88	30.17	0.02	7.53
82.464	22.88	30.17	0.05	7.55
82.496	22.88	30.17	0.05	7.55
82.528	22.86	30.15	0.05	7.55
82.560	22.86	30.15	-0.04	7.47
82.592	22.86	30.15	-0.04	7.47
82.624	22.88	30.16	-0.04	7.47
82.656	22.88	30.16	0.05	7.56
82.688	22.88	30.16	0.05	7.56
82.720	22.86	30.15	0.05	7.56
82.752	22.86	30.15	-0.03	7.48
82.784	22.86	30.15	-0.03	7.48
82.816	22.89	30.17	-0.03	7.48
82.848	22.89	30.17	0.01	7.52
82.880	22.89	30.17	0.01	7.52
82.912	20.13	27.42	0.01	7.52
82.944	20.13	27.42	0.04	7.55
82.976	20.13	27.42	0.04	7.55
83.008	1.71	9.00	0.04	7.55
83.040	1.71	9.00	-0.04	7.47
83.072	1.71	9.00	-0.04	7.47
83.104	-3.40	3.89	-0.04	7.47
83.136	-3.40	3.89	0.05	7.56
83.168	-3.40	3.89	0.05	7.56
83.200	-2.65	4.64	0.05	7.56
83.232	-2.65	4.64	-0.03	7.48
83.264	-2.65	4.64	-0.03	7.48
83.296	0.41	7.70	-0.03	7.48
83.328	0.41	7.70	0.01	7.52
83.360	0.41	7.70	0.01	7.52
83.392	1.98	9.27	0.01	7.52
83.424	1.98	9.27	0.05	7.55
83.456	1.98	9.27	0.05	7.55
83.488	1.08	8.37	0.05	7.55
83.520	1.08	8.37	-0.04	7.47
83.552	1.08	8.37	-0.04	7.47
83.584	-0.39	6.90	-0.04	7.47
83.616	-0.39	6.90	0.05	7.56
83.648	-0.39	6.90	0.05	7.56
83.680	-0.75	6.54	0.05	7.56
83.712	-0.75	6.54	-0.03	7.48
83.744	-0.75	6.54	-0.03	7.48
83.776	-0.08	7.21	-0.03	7.48
83.808	-0.08	7.21	0.00	7.51
83.840	-0.08	7.21	0.00	7.51
83.872	0.60	7.89	0.00	7.51
83.904	0.60	7.89	0.05	7.55
83.936	0.60	7.89	0.05	7.55
83.968	0.57	7.86	0.05	7.55
84.000	0.57	7.86	-0.05	7.46
84.032	0.57	7.86	-0.05	7.46
84.064	0.04	7.33	-0.05	7.46
84.096	0.04	7.33	0.05	7.56
84.128	0.04	7.33	0.05	7.56
84.160	-0.24	7.04	0.05	7.56
84.192	-0.24	7.04	-0.03	7.48
84.224	-0.24	7.04	-0.03	7.48
84.256	-0.09	7.20	-0.03	7.48
84.288	-0.09	7.20	0.00	7.51
84.320	-0.09	7.20	0.00	7.51
84.352	0.11	7.40	0.00	7.51
84.384	0.11	7.40	0.04	7.55
84.416	0.11	7.40	0.04	7.55
84.448	0.18	7.46	0.04	7.55
84.480	0.18	7.46	-0.05	7.46
84.512	0.18	7.46	-0.05	7.46
84.544	0.11	7.40	-0.05	7.46
84.576	0.11	7.40	0.05	7.56
84.608	0.11	7.40	0.05	7.56
84.640	0.05	7.33	0.05	7.56
84.672	0.05	7.33	-0.02	7.48
84.704	0.05	7.33	-0.02	7.48
84.736	0.06	7.35	-0.02	7.48
84.768	0.06	7.35	0.00	7.51
84.800	0.06	7.35	0.00	7.51
84.832	0.07	7.36	0.00	7.51
84.864	0.07	7.36	0.05	7.56
84.896	0.07	7.36	0.05	7.56
84.928	0.07	7.36	0.05	7.56
84.960	0.07	7.36	-0.05	7.46
84.992	0.07	7.36	-0.05	7.46
85.024	0.06	7.34	-0.05	7.46
85.056	0.06	7.34	0.05	7.56
85.088	0.06	7.34	0.05	7.56
85.120	0.05	7.34	0.05	7.56
85.152	0.05	7.34	-0.02	7.49
85.184	0.05	7.34	-0.02	7.49
85.216	0.06	7.35	-0.02	7.49
85.248	0.06	7.35	0.00	7.51
85.280	0.06	7.35	0.00	7.51
85.312	0.07	7.36	0.00	7.51
85.344	0.07	7.36	0.05	7.56
85.376	0.07	7.36	0.05	7.56
85.408	0.07	7.35	0.05	7.56
85.440	0.07	7.35	-0.05	7.46
85.472	0.07	7.35	-0.05	7.46
85.504	0.06	7.35	-0.05	7.46
85.536	0.06	7.35	0.05	7.55
85.568	0.06	7.35	0.05	7.55
85.600	0.06	7.35	0.05	7.55
85.632	0.06	7.35	-0.02	7.48
85.664	0.06	7.35	-0.02	7.48
85.696	0.07	7.35	-0.02	7.48
85.728	0.07	7.35	-0.00	7.50
85.760	0.07	7.35	-0.00	7.50
85.792	0.07	7.35	-0.00	7.50
85.824	0.07	7.35	0.05	7.56
85.856	0.07	7.35	0.05	7.56
85.888	0.06	7.35	0.05	7.56
85.920	0.06	7.35	-0.05	7.46
85.952	0.06	7.35	-0.05	7.46
85.984	0.07	7.35	-0.05	7.46
86.016	0.07	7.35	0.04	7.55
86.048	0.07	7.35	0.04	7.55
86.080	0.06	7.35	0.04	7.55
86.112	0.06	7.35	-0.03	7.48
86.144	0.06	7.35	-0.03	7.48
86.176	0.06	7.35	-0.03	7.48
86.208	0.06	7.35	-0.02	7.49
86.240	0.06	7.35	-0.02	7.49
86.272	0.06	7.35	-0.02	7.49
86.304	0.06	7.35	0.08	7.58
86.336	0.06	7.35	0.08	7.58
86.368	0.06	7.35	0.08	7.58
86.400	0.06	7.35	-0.06	7.45
