Tempo(s)    P0(KPa) P0+Coluna(KPa)  P1(KPa) P1+Coluna(KPa)
0.032	-2.22	-2.22	-2.22	-2.22
0.096	-2.22	-2.22	-2.22	-2.22
0.160	7.61	7.61	-2.22	-2.22
0.224	7.61	7.61	7.53	7.53
0.288	7.61	7.61	7.53	7.53
0.352	7.61	7.61	7.53	7.53
0.416	7.61	7.61	7.61	7.61
0.480	7.61	7.61	7.61	7.61
0.544	7.61	7.61	7.61	7.61
0.608	7.61	7.61	7.55	7.55
0.672	7.61	7.61	7.55	7.55
0.736	-0.09	7.52	-0.00	7.55
0.800	-0.09	7.52	-0.00	7.55
0.864	-0.09	7.52	-0.00	7.55
0.928	0.08	7.70	-0.00	7.55
0.992	0.08	7.70	0.08	7.63
1.056	0.08	7.70	0.08	7.63
1.120	-0.04	7.57	0.08	7.63
1.184	-0.04	7.57	0.01	7.56
1.248	-0.04	7.57	0.01	7.56
1.312	0.10	7.71	0.01	7.56
1.376	0.10	7.71	0.10	7.65
1.440	0.10	7.71	0.10	7.65
1.504	0.15	7.76	0.10	7.65
1.568	0.15	7.76	0.03	7.58
1.632	0.15	7.76	0.03	7.58
1.696	0.04	7.66	0.03	7.58
1.760	0.04	7.66	0.03	7.59
1.824	0.04	7.66	0.03	7.59
1.888	0.24	7.85	0.03	7.59
1.952	0.24	7.85	0.10	7.66
2.016	0.24	7.85	0.10	7.66
2.080	0.07	7.68	0.10	7.66
2.144	0.07	7.68	0.01	7.56
2.208	0.07	7.68	0.01	7.56
2.272	0.13	7.75	0.01	7.56
2.336	0.13	7.75	0.09	7.65
2.400	0.13	7.75	0.09	7.65
2.464	0.16	7.77	0.09	7.65
2.528	0.16	7.77	0.04	7.59
2.592	0.16	7.77	0.04	7.59
2.656	0.03	7.64	0.04	7.59
2.720	0.03	7.64	0.03	7.59
2.784	0.03	7.64	0.03	7.59
2.848	0.21	7.83	0.03	7.59
2.912	0.21	7.83	0.11	7.66
2.976	0.21	7.83	0.11	7.66
3.040	0.04	7.65	0.11	7.66
3.104	0.04	7.65	0.01	7.56
3.168	0.04	7.65	0.01	7.56
3.232	0.05	7.66	0.01	7.56
3.264	0.05	7.66	0.02	7.57
3.296	0.05	7.66	0.02	7.57
3.328	-0.01	7.60	0.02	7.57
3.360	-0.01	7.60	-0.04	7.52
3.392	-0.01	7.60	-0.04	7.52
3.424	-0.10	7.51	-0.04	7.52
3.456	-0.10	7.51	-0.04	7.51
3.488	-0.10	7.51	-0.04	7.51
3.520	0.08	7.69	-0.04	7.51
3.552	0.08	7.69	0.05	7.60
3.584	0.08	7.69	0.05	7.60
3.616	-0.09	7.52	0.05	7.60
3.648	-0.09	7.52	-0.07	7.48
3.680	-0.09	7.52	-0.07	7.48
3.712	-0.02	7.59	-0.07	7.48
3.744	-0.02	7.59	0.03	7.58
3.776	-0.02	7.59	0.03	7.58
3.808	-0.00	7.61	0.03	7.58
3.840	-0.00	7.61	-0.03	7.52
3.872	-0.00	7.61	-0.03	7.52
3.904	-0.11	7.50	-0.03	7.52
3.936	-0.11	7.50	-0.07	7.49
3.968	-0.11	7.50	-0.07	7.49
4.000	0.07	7.68	-0.07	7.49
4.032	0.07	7.68	0.04	7.59
4.064	0.07	7.68	0.04	7.59
4.096	-0.09	7.52	0.04	7.59
4.128	-0.09	7.52	-0.09	7.47
4.160	-0.09	7.52	-0.09	7.47
4.192	-0.02	7.59	-0.09	7.47
4.224	-0.02	7.59	-0.01	7.54
4.256	-0.02	7.59	-0.01	7.54
4.288	-0.01	7.60	-0.01	7.54
4.320	-0.01	7.60	-0.04	7.51
4.352	-0.01	7.60	-0.04	7.51
4.384	-0.09	7.53	-0.04	7.51
4.416	-0.09	7.53	-0.02	7.54
4.448	-0.09	7.53	-0.02	7.54
4.480	0.09	7.71	-0.02	7.54
4.512	0.09	7.71	0.06	7.62
4.544	0.09	7.71	0.06	7.62
4.576	-0.06	7.55	0.06	7.62
4.608	-0.06	7.55	-0.02	7.53
4.640	-0.06	7.55	-0.02	7.53
4.672	0.01	7.63	-0.02	7.53
4.704	0.01	7.63	0.09	7.64
4.736	0.01	7.63	0.09	7.64
4.768	-0.00	7.61	0.09	7.64
4.800	-0.00	7.61	-0.04	7.52
4.832	-0.00	7.61	-0.04	7.52
4.864	-0.08	7.54	-0.04	7.52
4.896	-0.08	7.54	-0.07	7.48
4.928	-0.08	7.54	-0.07	7.48
4.960	0.07	7.68	-0.07	7.48
4.992	0.07	7.68	0.05	7.60
5.024	0.07	7.68	0.05	7.60
5.056	-0.07	7.55	0.05	7.60
5.088	-0.07	7.55	-0.07	7.48
5.120	-0.07	7.55	-0.07	7.48
5.152	0.01	7.62	-0.07	7.48
5.184	0.01	7.62	-0.01	7.54
5.216	0.01	7.62	-0.01	7.54
5.248	-0.00	7.61	-0.01	7.54
5.280	-0.00	7.61	-0.03	7.52
5.312	-0.00	7.61	-0.03	7.52
5.344	-0.08	7.53	-0.03	7.52
5.376	-0.08	7.53	-0.04	7.52
5.408	-0.08	7.53	-0.04	7.52
5.440	0.07	7.69	-0.04	7.52
5.472	0.07	7.69	0.08	7.63
5.504	0.07	7.69	0.08	7.63
5.536	-0.06	7.55	0.08	7.63
5.568	-0.06	7.55	-0.03	7.53
5.600	-0.06	7.55	-0.03	7.53
5.632	0.03	7.64	-0.03	7.53
5.664	0.03	7.64	0.03	7.59
5.696	0.03	7.64	0.03	7.59
5.728	0.00	7.62	0.03	7.59
5.760	0.00	7.62	0.01	7.57
5.792	0.00	7.62	0.01	7.57
5.824	-0.06	7.55	0.01	7.57
5.856	-0.06	7.55	-0.04	7.51
5.888	-0.06	7.55	-0.04	7.51
5.920	0.06	7.67	-0.04	7.51
5.952	0.06	7.67	0.05	7.61
5.984	0.06	7.67	0.05	7.61
6.016	-0.06	7.55	0.05	7.61
6.048	-0.06	7.55	-0.07	7.48
6.080	-0.06	7.55	-0.07	7.48
6.112	0.00	7.62	-0.07	7.48
6.144	0.00	7.62	-0.01	7.55
6.176	0.00	7.62	-0.01	7.55
6.208	0.01	7.62	-0.01	7.55
6.240	0.01	7.62	-0.01	7.54
6.272	0.01	7.62	-0.01	7.54
6.304	-0.09	7.53	-0.01	7.54
6.336	-0.09	7.53	-0.06	7.49
6.368	-0.09	7.53	-0.06	7.49
6.400	0.06	7.68	-0.06	7.49
6.432	0.06	7.68	0.04	7.60
6.464	0.06	7.68	0.04	7.60
6.496	-0.06	7.55	0.04	7.60
6.528	-0.06	7.55	-0.08	7.48
6.560	-0.06	7.55	-0.08	7.48
6.592	-0.00	7.61	-0.08	7.48
6.624	-0.00	7.61	-0.01	7.54
6.656	-0.00	7.61	-0.01	7.54
6.688	0.01	7.63	-0.01	7.54
6.720	0.01	7.63	-0.02	7.53
6.752	0.01	7.63	-0.02	7.53
6.784	-0.10	7.51	-0.02	7.53
6.816	-0.10	7.51	-0.08	7.47
6.848	-0.10	7.51	-0.08	7.47
6.880	0.06	7.68	-0.08	7.47
6.912	0.06	7.68	0.03	7.59
6.944	0.06	7.68	0.03	7.59
6.976	-0.06	7.55	0.03	7.59
7.008	-0.06	7.55	-0.08	7.47
7.040	-0.06	7.55	-0.08	7.47
7.072	-0.02	7.59	-0.08	7.47
7.104	-0.02	7.59	-0.01	7.54
7.136	-0.02	7.59	-0.01	7.54
7.168	0.01	7.63	-0.01	7.54
7.200	0.01	7.63	-0.00	7.55
7.232	0.01	7.63	-0.00	7.55
7.264	-0.08	7.53	-0.00	7.55
7.296	-0.08	7.53	-0.07	7.48
7.328	-0.08	7.53	-0.07	7.48
7.360	0.06	7.68	-0.07	7.48
7.392	0.06	7.68	0.05	7.60
7.424	0.06	7.68	0.05	7.60
7.456	-0.06	7.55	0.05	7.60
7.488	-0.06	7.55	-0.05	7.50
7.520	-0.06	7.55	-0.05	7.50
7.552	0.02	7.63	-0.05	7.50
7.584	0.02	7.63	0.01	7.56
7.616	0.02	7.63	0.01	7.56
7.648	0.02	7.64	0.01	7.56
7.680	0.02	7.64	0.01	7.57
7.712	0.02	7.64	0.01	7.57
7.744	-0.07	7.54	0.01	7.57
7.776	-0.07	7.54	-0.05	7.50
7.808	-0.07	7.54	-0.05	7.50
7.840	0.06	7.67	-0.05	7.50
7.872	0.06	7.67	0.06	7.61
7.904	0.06	7.67	0.06	7.61
7.936	-0.06	7.55	0.06	7.61
7.968	-0.06	7.55	-0.04	7.51
8.000	-0.06	7.55	-0.04	7.51
8.032	0.02	7.63	-0.04	7.51
8.064	0.02	7.63	0.02	7.58
8.096	0.02	7.63	0.02	7.58
8.128	0.03	7.64	0.02	7.58
8.160	0.03	7.64	0.05	7.60
8.192	0.03	7.64	0.05	7.60
8.224	-0.07	7.54	0.05	7.60
8.256	-0.07	7.54	-0.05	7.51
8.288	-0.07	7.54	-0.05	7.51
8.320	0.06	7.67	-0.05	7.51
8.352	0.06	7.67	0.06	7.62
8.384	0.06	7.67	0.06	7.62
8.416	-0.06	7.56	0.06	7.62
8.448	-0.06	7.56	-0.04	7.52
8.480	-0.06	7.56	-0.04	7.52
8.512	0.01	7.62	-0.04	7.52
8.544	0.01	7.62	0.01	7.56
8.576	0.01	7.62	0.01	7.56
8.608	0.03	7.65	0.01	7.56
8.640	0.03	7.65	0.02	7.58
8.672	0.03	7.65	0.02	7.58
8.704	-0.07	7.54	0.02	7.58
8.736	-0.07	7.54	-0.07	7.48
8.768	-0.07	7.54	-0.07	7.48
8.800	0.05	7.66	-0.07	7.48
8.832	0.05	7.66	0.04	7.59
8.864	0.05	7.66	0.04	7.59
8.896	-0.06	7.55	0.04	7.59
8.928	-0.06	7.55	-0.07	7.49
8.960	-0.06	7.55	-0.07	7.49
8.992	-0.00	7.61	-0.07	7.49
9.024	-0.00	7.61	-0.01	7.54
9.056	-0.00	7.61	-0.01	7.54
9.088	0.04	7.65	-0.01	7.54
9.120	0.04	7.65	0.01	7.56
9.152	0.04	7.65	0.01	7.56
9.184	-0.09	7.52	0.01	7.56
9.216	-0.09	7.52	-0.08	7.48
9.248	-0.09	7.52	-0.08	7.48
9.280	0.05	7.67	-0.08	7.48
9.312	0.05	7.67	0.03	7.58
9.344	0.05	7.67	0.03	7.58
9.376	-0.06	7.55	0.03	7.58
9.408	-0.06	7.55	-0.07	7.48
9.440	-0.06	7.55	-0.07	7.48
9.472	-0.02	7.60	-0.07	7.48
9.504	-0.02	7.60	-0.01	7.54
9.536	-0.02	7.60	-0.01	7.54
9.568	0.04	7.66	-0.01	7.54
9.600	0.04	7.66	0.01	7.56
9.632	0.04	7.66	0.01	7.56
9.664	-0.09	7.52	0.01	7.56
9.696	-0.09	7.52	-0.08	7.48
9.728	-0.09	7.52	-0.08	7.48
9.760	0.05	7.66	-0.08	7.48
9.792	0.05	7.66	0.03	7.58
9.824	0.05	7.66	0.03	7.58
9.856	-0.05	7.56	0.03	7.58
9.888	-0.05	7.56	-0.08	7.48
9.920	-0.05	7.56	-0.08	7.48
9.952	-0.02	7.59	-0.08	7.48
9.984	-0.02	7.59	-0.02	7.54
10.016	-0.02	7.59	-0.02	7.54
10.048	0.05	7.66	-0.02	7.54
10.080	0.05	7.66	0.01	7.56
10.112	0.05	7.66	0.01	7.56
10.144	-0.10	7.52	0.01	7.56
10.176	-0.10	7.52	-0.08	7.47
10.208	-0.10	7.52	-0.08	7.47
10.240	0.04	7.65	-0.08	7.47
10.272	0.04	7.65	0.04	7.59
10.304	0.04	7.65	0.04	7.59
10.336	-0.06	7.56	0.04	7.59
10.368	-0.06	7.56	-0.06	7.49
10.400	-0.06	7.56	-0.06	7.49
10.432	-0.02	7.59	-0.06	7.49
10.464	-0.02	7.59	-0.02	7.54
10.496	-0.02	7.59	-0.02	7.54
10.528	0.05	7.67	-0.02	7.54
10.560	0.05	7.67	0.02	7.58
10.592	0.05	7.67	0.02	7.58
10.624	-0.09	7.53	0.02	7.58
10.656	-0.09	7.53	-0.08	7.48
10.688	-0.09	7.53	-0.08	7.48
10.720	0.06	7.67	-0.08	7.48
10.752	0.06	7.67	0.06	7.61
10.784	0.06	7.67	0.06	7.61
10.816	-0.01	7.60	0.06	7.61
10.848	-0.01	7.60	-0.04	7.52
10.880	-0.01	7.60	-0.04	7.52
10.912	-0.03	7.58	-0.04	7.52
10.944	-0.03	7.58	0.01	7.56
10.976	-0.03	7.58	0.01	7.56
11.008	0.07	7.68	0.01	7.56
11.040	0.07	7.68	0.02	7.57
11.072	0.07	7.68	0.02	7.57
11.104	-0.10	7.51	0.02	7.57
11.136	-0.10	7.51	-0.08	7.47
11.168	-0.10	7.51	-0.08	7.47
11.200	0.05	7.66	-0.08	7.47
11.232	0.05	7.66	0.08	7.63
11.264	0.05	7.66	0.08	7.63
11.296	0.01	7.62	0.08	7.63
11.328	0.01	7.62	0.02	7.57
11.360	0.01	7.62	0.02	7.57
11.392	-0.01	7.60	0.02	7.57
11.424	-0.01	7.60	0.07	7.63
11.456	-0.01	7.60	0.07	7.63
11.488	0.11	7.73	0.07	7.63
11.520	0.11	7.73	0.09	7.64
11.552	0.11	7.73	0.09	7.64
11.584	-0.06	7.55	0.09	7.64
11.616	-0.06	7.55	0.01	7.56
11.648	-0.06	7.55	0.01	7.56
11.680	0.08	7.69	0.01	7.56
11.712	0.08	7.69	0.10	7.66
11.744	0.08	7.69	0.10	7.66
11.776	0.01	7.63	0.10	7.66
11.808	0.01	7.63	0.02	7.57
11.840	0.01	7.63	0.02	7.57
11.872	-0.02	7.59	0.02	7.57
11.904	-0.02	7.59	0.06	7.62
11.936	-0.02	7.59	0.06	7.62
11.968	0.11	7.72	0.06	7.62
12.000	0.11	7.72	0.09	7.64
12.032	0.11	7.72	0.09	7.64
12.064	-0.07	7.54	0.09	7.64
12.096	-0.07	7.54	0.01	7.56
12.128	-0.07	7.54	0.01	7.56
12.160	0.06	7.67	0.01	7.56
12.192	0.06	7.67	0.09	7.65
12.224	0.06	7.67	0.09	7.65
12.256	0.00	7.62	0.09	7.65
12.288	0.00	7.62	-0.00	7.55
12.320	0.00	7.62	-0.00	7.55
12.352	-0.04	7.58	-0.00	7.55
12.384	-0.04	7.58	0.02	7.58
12.416	-0.04	7.58	0.02	7.58
12.448	0.08	7.69	0.02	7.58
12.480	0.08	7.69	0.05	7.60
12.512	0.08	7.69	0.05	7.60
12.544	-0.09	7.53	0.05	7.60
12.576	-0.09	7.53	-0.06	7.49
12.608	-0.09	7.53	-0.06	7.49
12.640	0.03	7.65	-0.06	7.49
12.672	0.03	7.65	0.05	7.60
12.704	0.03	7.65	0.05	7.60
12.736	-0.00	7.61	0.05	7.60
12.768	-0.00	7.61	-0.00	7.55
12.800	-0.00	7.61	-0.00	7.55
12.832	-0.03	7.58	-0.00	7.55
12.864	-0.03	7.58	0.05	7.60
12.896	-0.03	7.58	0.05	7.60
12.928	0.10	7.72	0.05	7.60
12.960	0.10	7.72	0.07	7.62
12.992	0.10	7.72	0.07	7.62
13.024	-0.09	7.53	0.07	7.62
13.056	-0.09	7.53	-0.05	7.50
13.088	-0.09	7.53	-0.05	7.50
13.120	0.04	7.65	-0.05	7.50
13.152	0.04	7.65	0.06	7.62
13.184	0.04	7.65	0.06	7.62
13.216	-0.02	7.59	0.06	7.62
13.248	-0.02	7.59	0.03	7.58
13.280	-0.02	7.59	0.03	7.58
13.312	9.89	17.50	0.03	7.58
13.344	9.89	17.50	0.06	7.62
13.376	9.89	17.50	0.06	7.62
13.408	13.60	21.21	0.06	7.62
13.440	13.60	21.21	0.10	7.65
13.472	13.60	21.21	0.10	7.65
13.504	11.91	19.52	0.10	7.65
13.536	11.91	19.52	0.01	7.57
13.568	11.91	19.52	0.01	7.57
13.600	12.62	20.23	0.01	7.57
13.632	12.62	20.23	0.11	7.67
13.664	12.62	20.23	0.11	7.67
13.696	12.06	19.67	0.11	7.67
13.728	12.06	19.67	0.03	7.58
13.760	12.06	19.67	0.03	7.58
13.792	12.40	20.02	0.03	7.58
13.824	12.40	20.02	0.05	7.61
13.856	12.40	20.02	0.05	7.61
13.888	12.17	19.79	0.05	7.61
13.920	12.17	19.79	0.11	7.66
13.952	12.17	19.79	0.11	7.66
13.984	12.43	20.04	0.11	7.66
14.016	12.43	20.04	0.01	7.57
14.048	12.43	20.04	0.01	7.57
14.080	13.35	20.97	0.01	7.57
14.112	13.35	20.97	0.11	7.66
14.144	13.35	20.97	0.11	7.66
14.176	13.79	21.40	0.11	7.66
14.208	13.79	21.40	0.03	7.58
14.240	13.79	21.40	0.03	7.58
14.272	13.91	21.53	0.03	7.58
14.304	13.91	21.53	0.05	7.60
14.336	13.91	21.53	0.05	7.60
14.368	14.06	21.68	0.05	7.60
14.400	14.06	21.68	0.10	7.66
14.432	14.06	21.68	0.10	7.66
14.464	13.71	21.32	0.10	7.66
14.496	13.71	21.32	0.01	7.56
14.528	13.71	21.32	0.01	7.56
14.560	13.87	21.48	0.01	7.56
14.592	13.87	21.48	0.11	7.66
14.624	13.87	21.48	0.11	7.66
14.656	13.24	20.85	0.11	7.66
14.688	13.24	20.85	0.03	7.58
14.720	13.24	20.85	0.03	7.58
14.752	12.94	20.55	0.03	7.58
14.784	12.94	20.55	0.05	7.60
14.816	12.94	20.55	0.05	7.60
14.848	13.12	20.74	0.05	7.60
14.880	13.12	20.74	0.10	7.66
14.912	13.12	20.74	0.10	7.66
14.944	12.39	20.00	0.10	7.66
14.976	12.39	20.00	0.01	7.56
15.008	12.39	20.00	0.01	7.56
15.040	12.24	19.85	0.01	7.56
15.072	12.24	19.85	0.10	7.65
15.104	12.24	19.85	0.10	7.65
15.136	12.77	20.39	0.10	7.65
15.168	12.77	20.39	0.03	7.58
15.200	12.77	20.39	0.03	7.58
15.232	13.01	20.62	0.03	7.58
15.264	13.01	20.62	0.04	7.59
15.296	13.01	20.62	0.04	7.59
15.328	13.06	20.68	0.04	7.59
15.360	13.06	20.68	0.11	7.66
15.392	13.06	20.68	0.11	7.66
15.424	13.17	20.78	0.11	7.66
15.456	13.17	20.78	0.01	7.56
15.488	13.17	20.78	0.01	7.56
15.520	13.44	21.05	0.01	7.56
15.552	13.44	21.05	0.10	7.65
15.584	13.44	21.05	0.10	7.65
15.616	12.77	20.38	0.10	7.65
15.648	12.77	20.38	0.03	7.58
15.680	12.77	20.38	0.03	7.58
15.712	12.64	20.25	0.03	7.58
15.744	12.64	20.25	0.04	7.59
15.776	12.64	20.25	0.04	7.59
15.808	13.14	20.75	0.04	7.59
15.840	13.14	20.75	0.11	7.66
15.872	13.14	20.75	0.11	7.66
15.904	13.54	21.15	0.11	7.66
15.936	13.54	21.15	0.01	7.56
15.968	13.54	21.15	0.01	7.56
16.000	13.33	20.94	0.01	7.56
16.032	13.33	20.94	0.10	7.65
16.064	13.33	20.94	0.10	7.65
16.096	13.33	20.95	0.10	7.65
16.128	13.33	20.95	0.04	7.59
16.160	13.33	20.95	0.04	7.59
16.192	13.69	21.30	0.04	7.59
16.224	13.69	21.30	0.04	7.59
16.256	13.69	21.30	0.04	7.59
16.288	13.79	21.40	0.04	7.59
16.320	13.79	21.40	0.11	7.66
16.352	13.79	21.40	0.11	7.66
16.384	13.72	21.34	0.11	7.66
16.416	13.72	21.34	0.01	7.57
16.448	13.72	21.34	0.01	7.57
16.480	13.08	20.69	0.01	7.57
16.512	13.08	20.69	0.10	7.65
16.544	13.08	20.69	0.10	7.65
16.576	13.35	20.97	0.10	7.65
16.608	13.35	20.97	0.04	7.59
16.640	13.35	20.97	0.04	7.59
16.672	13.81	21.42	0.04	7.59
16.704	13.81	21.42	0.03	7.59
16.736	13.81	21.42	0.03	7.59
16.768	13.90	21.51	0.03	7.59
16.800	13.90	21.51	0.10	7.66
16.832	13.90	21.51	0.10	7.66
16.864	13.42	21.04	0.10	7.66
16.896	13.42	21.04	0.01	7.57
16.928	13.42	21.04	0.01	7.57
16.960	13.19	20.80	0.01	7.57
16.992	13.19	20.80	0.10	7.65
17.024	13.19	20.80	0.10	7.65
17.056	12.84	20.45	0.10	7.65
17.088	12.84	20.45	0.04	7.59
17.120	12.84	20.45	0.04	7.59
17.152	12.66	20.28	0.04	7.59
17.184	12.66	20.28	0.04	7.59
17.216	12.66	20.28	0.04	7.59
17.248	12.21	19.82	0.04	7.59
17.280	12.21	19.82	0.11	7.66
17.312	12.21	19.82	0.11	7.66
17.344	12.40	20.01	0.11	7.66
17.376	12.40	20.01	0.01	7.57
17.408	12.40	20.01	0.01	7.57
17.440	12.98	20.59	0.01	7.57
17.472	12.98	20.59	0.10	7.65
17.504	12.98	20.59	0.10	7.65
17.536	13.04	20.65	0.10	7.65
17.568	13.04	20.65	0.04	7.59
17.600	13.04	20.65	0.04	7.59
17.632	12.74	20.35	0.04	7.59
17.664	12.74	20.35	0.03	7.58
17.696	12.74	20.35	0.03	7.58
17.728	12.46	20.07	0.03	7.58
17.760	12.46	20.07	0.10	7.66
17.792	12.46	20.07	0.10	7.66
17.824	12.50	20.11	0.10	7.66
17.856	12.50	20.11	0.01	7.57
17.888	12.50	20.11	0.01	7.57
17.920	12.46	20.07	0.01	7.57
17.952	12.46	20.07	0.10	7.65
17.984	12.46	20.07	0.10	7.65
18.016	12.21	19.83	0.10	7.65
18.048	12.21	19.83	0.04	7.60
18.080	12.21	19.83	0.04	7.60
18.112	11.81	19.43	0.04	7.60
18.144	11.81	19.43	0.03	7.58
18.176	11.81	19.43	0.03	7.58
18.208	11.90	19.52	0.03	7.58
18.240	11.90	19.52	0.11	7.66
18.272	11.90	19.52	0.11	7.66
18.304	11.75	19.37	0.11	7.66
18.336	11.75	19.37	0.01	7.57
18.368	11.75	19.37	0.01	7.57
18.400	12.09	19.70	0.01	7.57
18.432	12.09	19.70	0.10	7.65
18.464	12.09	19.70	0.10	7.65
18.496	12.34	19.95	0.10	7.65
18.528	12.34	19.95	0.04	7.60
18.560	12.34	19.95	0.04	7.60
18.592	11.85	19.47	0.04	7.60
18.624	11.85	19.47	0.02	7.58
18.656	11.85	19.47	0.02	7.58
18.688	10.45	18.06	0.02	7.58
18.720	10.45	18.06	0.11	7.66
18.752	10.45	18.06	0.11	7.66
18.784	9.84	17.45	0.11	7.66
18.816	9.84	17.45	0.01	7.56
18.848	9.84	17.45	0.01	7.56
18.880	10.19	17.80	0.01	7.56
18.912	10.19	17.80	0.09	7.65
18.944	10.19	17.80	0.09	7.65
18.976	9.35	16.97	0.09	7.65
19.008	9.35	16.97	0.05	7.60
19.040	9.35	16.97	0.05	7.60
19.072	7.73	15.34	0.05	7.60
19.104	7.73	15.34	0.02	7.58
19.136	7.73	15.34	0.02	7.58
19.168	7.96	15.57	0.02	7.58
19.200	7.96	15.57	0.11	7.66
19.232	7.96	15.57	0.11	7.66
19.264	8.21	15.83	0.11	7.66
19.296	8.21	15.83	0.01	7.57
19.328	8.21	15.83	0.01	7.57
19.360	8.67	16.28	0.01	7.57
19.392	8.67	16.28	0.09	7.65
19.424	8.67	16.28	0.09	7.65
19.456	9.25	16.86	0.09	7.65
19.488	9.25	16.86	0.05	7.60
19.520	9.25	16.86	0.05	7.60
19.552	8.27	15.88	0.05	7.60
19.584	8.27	15.88	0.02	7.58
19.616	8.27	15.88	0.02	7.58
19.648	8.79	16.40	0.02	7.58
19.680	8.79	16.40	0.11	7.66
19.712	8.79	16.40	0.11	7.66
19.744	8.80	16.41	0.11	7.66
19.776	8.80	16.41	0.02	7.57
19.808	8.80	16.41	0.02	7.57
19.840	9.11	16.72	0.02	7.57
19.872	9.11	16.72	0.09	7.65
19.904	9.11	16.72	0.09	7.65
19.936	7.97	15.58	0.09	7.65
19.968	7.97	15.58	0.05	7.60
20.000	7.97	15.58	0.05	7.60
20.032	6.41	14.03	0.05	7.60
20.064	6.41	14.03	0.02	7.58
20.096	6.41	14.03	0.02	7.58
20.128	7.34	14.96	0.02	7.58
20.160	7.34	14.96	0.11	7.66
20.192	7.34	14.96	0.11	7.66
20.224	6.55	14.16	0.11	7.66
20.256	6.55	14.16	0.02	7.58
20.288	6.55	14.16	0.02	7.58
20.320	6.65	14.26	0.02	7.58
20.352	6.65	14.26	0.09	7.64
20.384	6.65	14.26	0.09	7.64
20.416	6.62	14.23	0.09	7.64
20.448	6.62	14.23	0.05	7.60
20.480	6.62	14.23	0.05	7.60
20.512	6.19	13.80	0.05	7.60
20.544	6.19	13.80	0.02	7.57
20.576	6.19	13.80	0.02	7.57
20.608	6.36	13.97	0.02	7.57
20.640	6.36	13.97	0.11	7.66
20.672	6.36	13.97	0.11	7.66
20.704	6.61	14.23	0.11	7.66
20.736	6.61	14.23	0.02	7.57
20.768	6.61	14.23	0.02	7.57
20.800	6.05	13.66	0.02	7.57
20.832	6.05	13.66	0.09	7.65
20.864	6.05	13.66	0.09	7.65
20.896	6.24	13.86	0.09	7.65
20.928	6.24	13.86	0.05	7.60
20.960	6.24	13.86	0.05	7.60
20.992	5.69	13.30	0.05	7.60
21.024	5.69	13.30	0.02	7.57
21.056	5.69	13.30	0.02	7.57
21.088	6.91	14.53	0.02	7.57
21.120	6.91	14.53	0.11	7.66
21.152	6.91	14.53	0.11	7.66
21.184	5.75	13.36	0.11	7.66
21.216	5.75	13.36	0.02	7.57
21.248	5.75	13.36	0.02	7.57
21.280	5.45	13.06	0.02	7.57
21.312	5.45	13.06	0.09	7.64
21.344	5.45	13.06	0.09	7.64
21.376	5.67	13.29	0.09	7.64
21.408	5.67	13.29	0.05	7.61
21.440	5.67	13.29	0.05	7.61
21.472	6.02	13.63	0.05	7.61
21.504	6.02	13.63	0.02	7.57
21.536	6.02	13.63	0.02	7.57
21.568	5.60	13.21	0.02	7.57
21.600	5.60	13.21	0.11	7.67
21.632	5.60	13.21	0.11	7.67
21.664	5.44	13.05	0.11	7.67
21.696	5.44	13.05	0.02	7.57
21.728	5.44	13.05	0.02	7.57
21.760	5.76	13.38	0.02	7.57
21.792	5.76	13.38	0.09	7.64
21.824	5.76	13.38	0.09	7.64
21.856	5.38	12.99	0.09	7.64
21.888	5.38	12.99	0.06	7.61
21.920	5.38	12.99	0.06	7.61
21.952	4.79	12.40	0.06	7.61
21.984	4.79	12.40	0.02	7.57
22.016	4.79	12.40	0.02	7.57
22.048	5.19	12.80	0.02	7.57
22.080	5.19	12.80	0.11	7.67
22.112	5.19	12.80	0.11	7.67
22.144	5.24	12.85	0.11	7.67
22.176	5.24	12.85	0.02	7.58
22.208	5.24	12.85	0.02	7.58
22.240	4.84	12.45	0.02	7.58
22.272	4.84	12.45	0.10	7.65
22.304	4.84	12.45	0.10	7.65
22.336	5.19	12.80	0.10	7.65
22.368	5.19	12.80	0.05	7.61
22.400	5.19	12.80	0.05	7.61
22.432	4.92	12.53	0.05	7.61
22.464	4.92	12.53	0.01	7.57
22.496	4.92	12.53	0.01	7.57
22.528	5.18	12.79	0.01	7.57
22.560	5.18	12.79	0.11	7.66
22.592	5.18	12.79	0.11	7.66
22.624	4.25	11.86	0.11	7.66
22.656	4.25	11.86	0.02	7.57
22.688	4.25	11.86	0.02	7.57
22.720	3.89	11.51	0.02	7.57
22.752	3.89	11.51	0.09	7.64
22.784	3.89	11.51	0.09	7.64
22.816	4.37	11.99	0.09	7.64
22.848	4.37	11.99	0.06	7.61
22.880	4.37	11.99	0.06	7.61
22.912	3.74	11.35	0.06	7.61
22.944	3.74	11.35	0.02	7.57
22.976	3.74	11.35	0.02	7.57
23.008	3.65	11.27	0.02	7.57
23.040	3.65	11.27	0.11	7.66
23.072	3.65	11.27	0.11	7.66
23.104	3.70	11.32	0.11	7.66
23.136	3.70	11.32	0.02	7.57
23.168	3.70	11.32	0.02	7.57
23.200	3.65	11.27	0.02	7.57
23.232	3.65	11.27	0.09	7.64
23.264	3.65	11.27	0.09	7.64
23.296	3.42	11.04	0.09	7.64
23.328	3.42	11.04	0.06	7.61
23.360	3.42	11.04	0.06	7.61
23.392	4.08	11.70	0.06	7.61
23.424	4.08	11.70	0.01	7.57
23.456	4.08	11.70	0.01	7.57
23.488	3.94	11.56	0.01	7.57
23.520	3.94	11.56	0.11	7.67
23.552	3.94	11.56	0.11	7.67
23.584	4.03	11.65	0.11	7.67
23.616	4.03	11.65	0.02	7.57
23.648	4.03	11.65	0.02	7.57
23.680	3.79	11.41	0.02	7.57
23.712	3.79	11.41	0.09	7.64
23.744	3.79	11.41	0.09	7.64
23.776	3.91	11.52	0.09	7.64
23.808	3.91	11.52	0.06	7.61
23.840	3.91	11.52	0.06	7.61
23.872	3.21	10.83	0.06	7.61
23.904	3.21	10.83	0.01	7.57
23.936	3.21	10.83	0.01	7.57
23.968	4.00	11.62	0.01	7.57
24.000	4.00	11.62	0.11	7.67
24.032	4.00	11.62	0.11	7.67
24.064	4.03	11.65	0.11	7.67
24.096	4.03	11.65	0.02	7.58
24.128	4.03	11.65	0.02	7.58
24.160	4.78	12.39	0.02	7.58
24.192	4.78	12.39	0.09	7.64
24.224	4.78	12.39	0.09	7.64
24.256	4.56	12.18	0.09	7.64
24.288	4.56	12.18	0.06	7.61
24.320	4.56	12.18	0.06	7.61
24.352	4.11	11.72	0.06	7.61
24.384	4.11	11.72	0.02	7.57
24.416	4.11	11.72	0.02	7.57
24.448	4.15	11.76	0.02	7.57
24.480	4.15	11.76	0.11	7.67
24.512	4.15	11.76	0.11	7.67
24.544	3.86	11.47	0.11	7.67
24.576	3.86	11.47	0.02	7.58
24.608	3.86	11.47	0.02	7.58
24.640	3.77	11.38	0.02	7.58
24.672	3.77	11.38	0.09	7.64
24.704	3.77	11.38	0.09	7.64
24.736	3.99	11.60	0.09	7.64
24.768	3.99	11.60	0.06	7.61
24.800	3.99	11.60	0.06	7.61
24.832	3.30	10.91	0.06	7.61
24.864	3.30	10.91	0.01	7.57
24.896	3.30	10.91	0.01	7.57
24.928	3.45	11.07	0.01	7.57
24.960	3.45	11.07	0.11	7.67
24.992	3.45	11.07	0.11	7.67
25.024	3.18	10.79	0.11	7.67
25.056	3.18	10.79	0.02	7.58
25.088	3.18	10.79	0.02	7.58
25.120	3.16	10.77	0.02	7.58
25.152	3.16	10.77	0.10	7.65
25.184	3.16	10.77	0.10	7.65
25.216	3.21	10.83	0.10	7.65
25.248	3.21	10.83	0.06	7.62
25.280	3.21	10.83	0.06	7.62
25.312	3.21	10.82	0.06	7.62
25.344	3.21	10.82	0.01	7.57
25.376	3.21	10.82	0.01	7.57
25.408	3.11	10.73	0.01	7.57
25.440	3.11	10.73	0.11	7.67
25.472	3.11	10.73	0.11	7.67
25.504	3.67	11.28	0.11	7.67
25.536	3.67	11.28	0.02	7.58
25.568	3.67	11.28	0.02	7.58
25.600	2.81	10.43	0.02	7.58
25.632	2.81	10.43	0.10	7.65
25.664	2.81	10.43	0.10	7.65
25.696	3.06	10.68	0.10	7.65
25.728	3.06	10.68	0.06	7.61
25.760	3.06	10.68	0.06	7.61
25.792	2.90	10.52	0.06	7.61
25.824	2.90	10.52	0.01	7.57
25.856	2.90	10.52	0.01	7.57
25.888	3.18	10.79	0.01	7.57
25.920	3.18	10.79	0.11	7.67
25.952	3.18	10.79	0.11	7.67
25.984	3.64	11.25	0.11	7.67
26.016	3.64	11.25	0.02	7.58
26.048	3.64	11.25	0.02	7.58
26.080	4.08	11.69	0.02	7.58
26.112	4.08	11.69	0.09	7.64
26.144	4.08	11.69	0.09	7.64
26.176	3.72	11.34	0.09	7.64
26.208	3.72	11.34	0.06	7.61
26.240	3.72	11.34	0.06	7.61
26.272	3.32	10.93	0.06	7.61
26.304	3.32	10.93	0.01	7.57
26.336	3.32	10.93	0.01	7.57
26.368	3.39	11.00	0.01	7.57
26.400	3.39	11.00	0.11	7.67
26.432	3.39	11.00	0.11	7.67
26.464	3.83	11.44	0.11	7.67
26.496	3.83	11.44	0.02	7.58
26.528	3.83	11.44	0.02	7.58
26.560	3.23	10.84	0.02	7.58
26.592	3.23	10.84	0.09	7.64
26.624	3.23	10.84	0.09	7.64
26.656	3.72	11.34	0.09	7.64
26.688	3.72	11.34	0.07	7.62
26.720	3.72	11.34	0.07	7.62
26.752	3.87	11.48	0.07	7.62
26.784	3.87	11.48	0.01	7.57
26.816	3.87	11.48	0.01	7.57
26.848	3.99	11.60	0.01	7.57
26.880	3.99	11.60	0.11	7.67
26.912	3.99	11.60	0.11	7.67
26.944	4.09	11.70	0.11	7.67
26.976	4.09	11.70	0.02	7.58
27.008	4.09	11.70	0.02	7.58
27.040	3.96	11.58	0.02	7.58
27.072	3.96	11.58	0.09	7.65
27.104	3.96	11.58	0.09	7.65
27.136	4.82	12.43	0.09	7.65
27.168	4.82	12.43	0.06	7.62
27.200	4.82	12.43	0.06	7.62
27.232	5.17	12.79	0.06	7.62
27.264	5.17	12.79	0.01	7.56
27.296	5.17	12.79	0.01	7.56
27.328	4.06	11.68	0.01	7.56
27.360	4.06	11.68	0.11	7.67
27.392	4.06	11.68	0.11	7.67
27.424	4.37	11.99	0.11	7.67
27.456	4.37	11.99	0.02	7.58
27.488	4.37	11.99	0.02	7.58
27.520	6.86	14.47	0.02	7.58
27.552	6.86	14.47	0.09	7.64
27.584	6.86	14.47	0.09	7.64
27.616	7.29	14.91	0.09	7.64
27.648	7.29	14.91	0.06	7.61
27.680	7.29	14.91	0.06	7.61
27.712	6.69	14.31	0.06	7.61
27.744	6.69	14.31	0.01	7.57
27.776	6.69	14.31	0.01	7.57
27.808	7.84	15.45	0.01	7.57
27.840	7.84	15.45	0.11	7.67
27.872	7.84	15.45	0.11	7.67
27.904	8.59	16.20	0.11	7.67
27.936	8.59	16.20	0.02	7.58
27.968	8.59	16.20	0.02	7.58
28.000	6.88	14.49	0.02	7.58
28.032	6.88	14.49	0.09	7.64
28.064	6.88	14.49	0.09	7.64
28.096	7.77	15.38	0.09	7.64
28.128	7.77	15.38	0.06	7.62
28.160	7.77	15.38	0.06	7.62
28.192	9.31	16.93	0.06	7.62
28.224	9.31	16.93	0.02	7.57
28.256	9.31	16.93	0.02	7.57
28.288	9.61	17.22	0.02	7.57
28.320	9.61	17.22	0.11	7.66
28.352	9.61	17.22	0.11	7.66
28.384	9.40	17.01	0.11	7.66
28.416	9.40	17.01	0.02	7.57
28.448	9.40	17.01	0.02	7.57
28.480	9.89	17.50	0.02	7.57
28.512	9.89	17.50	0.09	7.64
28.544	9.89	17.50	0.09	7.64
28.576	9.44	17.05	0.09	7.64
28.608	9.44	17.05	0.06	7.62
28.640	9.44	17.05	0.06	7.62
28.672	8.21	15.83	0.06	7.62
28.704	8.21	15.83	0.02	7.57
28.736	8.21	15.83	0.02	7.57
28.768	8.17	15.79	0.02	7.57
28.800	8.17	15.79	0.11	7.66
28.832	8.17	15.79	0.11	7.66
28.864	7.18	14.79	0.11	7.66
28.896	7.18	14.79	0.02	7.57
28.928	7.18	14.79	0.02	7.57
28.960	7.76	15.37	0.02	7.57
28.992	7.76	15.37	0.09	7.64
29.024	7.76	15.37	0.09	7.64
29.056	8.70	16.31	0.09	7.64
29.088	8.70	16.31	0.06	7.61
29.120	8.70	16.31	0.06	7.61
29.152	7.89	15.50	0.06	7.61
29.184	7.89	15.50	0.02	7.57
29.216	7.89	15.50	0.02	7.57
29.248	7.44	15.05	0.02	7.57
29.280	7.44	15.05	0.11	7.67
29.312	7.44	15.05	0.11	7.67
29.344	7.59	15.20	0.11	7.67
29.376	7.59	15.20	0.02	7.57
29.408	7.59	15.20	0.02	7.57
29.440	8.77	16.39	0.02	7.57
29.472	8.77	16.39	0.09	7.64
29.504	8.77	16.39	0.09	7.64
29.536	8.24	15.85	0.09	7.64
29.568	8.24	15.85	0.06	7.61
29.600	8.24	15.85	0.06	7.61
29.632	6.48	14.09	0.06	7.61
29.664	6.48	14.09	0.02	7.57
29.696	6.48	14.09	0.02	7.57
29.728	6.36	13.97	0.02	7.57
29.760	6.36	13.97	0.11	7.67
29.792	6.36	13.97	0.11	7.67
29.824	6.32	13.94	0.11	7.67
29.856	6.32	13.94	0.02	7.57
29.888	6.32	13.94	0.02	7.57
29.920	7.86	15.47	0.02	7.57
29.952	7.86	15.47	0.09	7.64
29.984	7.86	15.47	0.09	7.64
30.016	8.16	15.78	0.09	7.64
30.048	8.16	15.78	0.05	7.60
30.080	8.16	15.78	0.05	7.60
30.112	7.53	15.14	0.05	7.60
30.144	7.53	15.14	0.01	7.57
30.176	7.53	15.14	0.01	7.57
30.208	7.44	15.05	0.01	7.57
30.240	7.44	15.05	0.11	7.66
30.272	7.44	15.05	0.11	7.66
30.304	6.86	14.48	0.11	7.66
30.336	6.86	14.48	0.01	7.57
30.368	6.86	14.48	0.01	7.57
30.400	9.81	17.42	0.01	7.57
30.432	9.81	17.42	0.09	7.65
30.464	9.81	17.42	0.09	7.65
30.496	10.12	17.73	0.09	7.65
30.528	10.12	17.73	0.05	7.60
30.560	10.12	17.73	0.05	7.60
30.592	10.26	17.88	0.05	7.60
30.624	10.26	17.88	0.02	7.57
30.656	10.26	17.88	0.02	7.57
30.688	9.85	17.47	0.02	7.57
30.720	9.85	17.47	0.11	7.66
30.752	9.85	17.47	0.11	7.66
30.784	9.84	17.45	0.11	7.66
30.816	9.84	17.45	0.02	7.57
30.848	9.84	17.45	0.02	7.57
30.880	9.58	17.19	0.02	7.57
30.912	9.58	17.19	0.09	7.64
30.944	9.58	17.19	0.09	7.64
30.976	10.44	18.05	0.09	7.64
31.008	10.44	18.05	0.05	7.60
31.040	10.44	18.05	0.05	7.60
31.072	10.43	18.04	0.05	7.60
31.104	10.43	18.04	0.02	7.57
31.136	10.43	18.04	0.02	7.57
31.168	10.47	18.08	0.02	7.57
31.200	10.47	18.08	0.11	7.66
31.232	10.47	18.08	0.11	7.66
31.264	9.59	17.20	0.11	7.66
31.296	9.59	17.20	0.01	7.57
31.328	9.59	17.20	0.01	7.57
31.360	9.37	16.98	0.01	7.57
31.392	9.37	16.98	0.10	7.65
31.424	9.37	16.98	0.10	7.65
31.456	9.44	17.05	0.10	7.65
31.488	9.44	17.05	0.05	7.60
31.520	9.44	17.05	0.05	7.60
31.552	10.52	18.14	0.05	7.60
31.584	10.52	18.14	0.02	7.57
31.616	10.52	18.14	0.02	7.57
31.648	9.60	17.21	0.02	7.57
31.680	9.60	17.21	0.11	7.66
31.712	9.60	17.21	0.11	7.66
31.744	8.51	16.12	0.11	7.66
31.776	8.51	16.12	0.01	7.57
31.808	8.51	16.12	0.01	7.57
31.840	9.51	17.12	0.01	7.57
31.872	9.51	17.12	0.09	7.65
31.904	9.51	17.12	0.09	7.65
31.936	8.95	16.56	0.09	7.65
31.968	8.95	16.56	0.05	7.60
32.000	8.95	16.56	0.05	7.60
32.032	8.90	16.51	0.05	7.60
32.064	8.90	16.51	0.02	7.58
32.096	8.90	16.51	0.02	7.58
32.128	10.02	17.64	0.02	7.58
32.160	10.02	17.64	0.10	7.66
32.192	10.02	17.64	0.10	7.66
32.224	9.17	16.78	0.10	7.66
32.256	9.17	16.78	0.01	7.57
32.288	9.17	16.78	0.01	7.57
32.320	9.86	17.47	0.01	7.57
32.352	9.86	17.47	0.09	7.65
32.384	9.86	17.47	0.09	7.65
32.416	8.82	16.43	0.09	7.65
32.448	8.82	16.43	0.05	7.60
32.480	8.82	16.43	0.05	7.60
32.512	8.34	15.95	0.05	7.60
32.544	8.34	15.95	0.02	7.58
32.576	8.34	15.95	0.02	7.58
32.608	7.70	15.32	0.02	7.58
32.640	7.70	15.32	0.11	7.66
32.672	7.70	15.32	0.11	7.66
32.704	9.27	16.88	0.11	7.66
32.736	9.27	16.88	0.01	7.57
32.768	9.27	16.88	0.01	7.57
32.800	10.45	18.06	0.01	7.57
32.832	10.45	18.06	0.09	7.65
32.864	10.45	18.06	0.09	7.65
32.896	10.82	18.44	0.09	7.65
32.928	10.82	18.44	0.04	7.60
32.960	10.82	18.44	0.04	7.60
32.992	11.64	19.25	0.04	7.60
33.024	11.64	19.25	0.02	7.58
33.056	11.64	19.25	0.02	7.58
33.088	11.95	19.56	0.02	7.58
33.120	11.95	19.56	0.10	7.66
33.152	11.95	19.56	0.10	7.66
33.184	8.55	16.16	0.10	7.66
33.216	8.55	16.16	0.01	7.57
33.248	8.55	16.16	0.01	7.57
33.280	8.88	16.50	0.01	7.57
33.312	8.88	16.50	0.09	7.65
33.344	8.88	16.50	0.09	7.65
33.376	9.77	17.39	0.09	7.65
33.408	9.77	17.39	0.04	7.59
33.440	9.77	17.39	0.04	7.59
33.472	10.26	17.87	0.04	7.59
33.504	10.26	17.87	0.03	7.58
33.536	10.26	17.87	0.03	7.58
33.568	11.27	18.89	0.03	7.58
33.600	11.27	18.89	0.11	7.66
33.632	11.27	18.89	0.11	7.66
33.664	11.55	19.16	0.11	7.66
33.696	11.55	19.16	0.01	7.57
33.728	11.55	19.16	0.01	7.57
33.760	10.69	18.30	0.01	7.57
33.792	10.69	18.30	0.09	7.64
33.824	10.69	18.30	0.09	7.64
33.856	11.49	19.11	0.09	7.64
33.888	11.49	19.11	0.04	7.59
33.920	11.49	19.11	0.04	7.59
33.952	10.91	18.53	0.04	7.59
33.984	10.91	18.53	0.03	7.58
34.016	10.91	18.53	0.03	7.58
34.048	10.78	18.39	0.03	7.58
34.080	10.78	18.39	0.11	7.66
34.112	10.78	18.39	0.11	7.66
34.144	10.96	18.58	0.11	7.66
34.176	10.96	18.58	0.01	7.57
34.208	10.96	18.58	0.01	7.57
34.240	10.77	18.38	0.01	7.57
34.272	10.77	18.38	0.09	7.65
34.304	10.77	18.38	0.09	7.65
34.336	11.82	19.43	0.09	7.65
34.368	11.82	19.43	0.04	7.59
34.400	11.82	19.43	0.04	7.59
34.432	11.06	18.67	0.04	7.59
34.464	11.06	18.67	0.03	7.59
34.496	11.06	18.67	0.03	7.59
34.528	10.83	18.44	0.03	7.59
34.560	10.83	18.44	0.11	7.66
34.592	10.83	18.44	0.11	7.66
34.624	8.18	15.80	0.11	7.66
34.656	8.18	15.80	0.02	7.57
34.688	8.18	15.80	0.02	7.57
34.720	8.00	15.61	0.02	7.57
34.752	8.00	15.61	0.10	7.65
34.784	8.00	15.61	0.10	7.65
34.816	9.48	17.09	0.10	7.65
34.848	9.48	17.09	0.04	7.59
34.880	9.48	17.09	0.04	7.59
34.912	10.82	18.44	0.04	7.59
34.944	10.82	18.44	0.04	7.59
34.976	10.82	18.44	0.04	7.59
35.008	11.70	19.31	0.04	7.59
35.040	11.70	19.31	0.11	7.66
35.072	11.70	19.31	0.11	7.66
35.104	10.85	18.46	0.11	7.66
35.136	10.85	18.46	0.01	7.56
35.168	10.85	18.46	0.01	7.56
35.200	11.41	19.02	0.01	7.56
35.232	11.41	19.02	0.10	7.65
35.264	11.41	19.02	0.10	7.65
35.296	10.92	18.54	0.10	7.65
35.328	10.92	18.54	0.04	7.59
35.360	10.92	18.54	0.04	7.59
35.392	8.45	16.07	0.04	7.59
35.424	8.45	16.07	0.04	7.59
35.456	8.45	16.07	0.04	7.59
35.488	8.16	15.78	0.04	7.59
35.520	8.16	15.78	0.10	7.66
35.552	8.16	15.78	0.10	7.66
35.584	7.61	15.22	0.10	7.66
35.616	7.61	15.22	0.01	7.57
35.648	7.61	15.22	0.01	7.57
35.680	7.77	15.38	0.01	7.57
35.712	7.77	15.38	0.10	7.65
35.744	7.77	15.38	0.10	7.65
35.776	8.21	15.82	0.10	7.65
35.808	8.21	15.82	0.03	7.58
35.840	8.21	15.82	0.03	7.58
35.872	7.05	14.66	0.03	7.58
35.904	7.05	14.66	0.04	7.59
35.936	7.05	14.66	0.04	7.59
35.968	7.10	14.71	0.04	7.59
36.000	7.10	14.71	0.10	7.66
36.032	7.10	14.71	0.10	7.66
36.064	7.36	14.97	0.10	7.66
36.096	7.36	14.97	0.01	7.57
36.128	7.36	14.97	0.01	7.57
36.160	7.01	14.63	0.01	7.57
36.192	7.01	14.63	0.10	7.65
36.224	7.01	14.63	0.10	7.65
36.256	7.21	14.82	0.10	7.65
36.288	7.21	14.82	0.03	7.59
36.320	7.21	14.82	0.03	7.59
36.352	6.99	14.61	0.03	7.59
36.384	6.99	14.61	0.04	7.59
36.416	6.99	14.61	0.04	7.59
36.448	7.34	14.95	0.04	7.59
36.480	7.34	14.95	0.10	7.66
36.512	7.34	14.95	0.10	7.66
36.544	7.15	14.77	0.10	7.66
36.576	7.15	14.77	0.01	7.57
36.608	7.15	14.77	0.01	7.57
36.640	6.93	14.55	0.01	7.57
36.672	6.93	14.55	0.10	7.65
36.704	6.93	14.55	0.10	7.65
36.736	7.45	15.06	0.10	7.65
36.768	7.45	15.06	0.03	7.58
36.800	7.45	15.06	0.03	7.58
36.832	6.80	14.41	0.03	7.58
36.864	6.80	14.41	0.05	7.60
36.896	6.80	14.41	0.05	7.60
36.928	7.15	14.76	0.05	7.60
36.960	7.15	14.76	0.11	7.66
36.992	7.15	14.76	0.11	7.66
37.024	6.88	14.49	0.11	7.66
37.056	6.88	14.49	0.01	7.57
37.088	6.88	14.49	0.01	7.57
37.120	7.03	14.65	0.01	7.57
37.152	7.03	14.65	0.10	7.65
37.184	7.03	14.65	0.10	7.65
37.216	7.18	14.79	0.10	7.65
37.248	7.18	14.79	0.03	7.58
37.280	7.18	14.79	0.03	7.58
37.312	7.00	14.61	0.03	7.58
37.344	7.00	14.61	0.05	7.60
37.376	7.00	14.61	0.05	7.60
37.408	7.24	14.85	0.05	7.60
37.440	7.24	14.85	0.10	7.66
37.472	7.24	14.85	0.10	7.66
37.504	7.57	15.18	0.10	7.66
37.536	7.57	15.18	0.01	7.57
37.568	7.57	15.18	0.01	7.57
37.600	8.57	16.18	0.01	7.57
37.632	8.57	16.18	0.10	7.66
37.664	8.57	16.18	0.10	7.66
37.696	8.25	15.86	0.10	7.66
37.728	8.25	15.86	0.03	7.59
37.760	8.25	15.86	0.03	7.59
37.792	7.79	15.40	0.03	7.59
37.824	7.79	15.40	0.05	7.60
37.856	7.79	15.40	0.05	7.60
37.888	8.06	15.67	0.05	7.60
37.920	8.06	15.67	0.10	7.66
37.952	8.06	15.67	0.10	7.66
37.984	8.12	15.73	0.10	7.66
38.016	8.12	15.73	0.01	7.57
38.048	8.12	15.73	0.01	7.57
38.080	7.17	14.78	0.01	7.57
38.112	7.17	14.78	0.11	7.66
38.144	7.17	14.78	0.11	7.66
38.176	7.55	15.16	0.11	7.66
38.208	7.55	15.16	0.03	7.59
38.240	7.55	15.16	0.03	7.59
38.272	7.39	15.00	0.03	7.59
38.304	7.39	15.00	0.05	7.60
38.336	7.39	15.00	0.05	7.60
38.368	8.02	15.63	0.05	7.60
38.400	8.02	15.63	0.10	7.66
38.432	8.02	15.63	0.10	7.66
38.464	7.92	15.53	0.10	7.66
38.496	7.92	15.53	0.01	7.57
38.528	7.92	15.53	0.01	7.57
38.560	7.49	15.11	0.01	7.57
38.592	7.49	15.11	0.11	7.66
38.624	7.49	15.11	0.11	7.66
38.656	7.86	15.48	0.11	7.66
38.688	7.86	15.48	0.03	7.58
38.720	7.86	15.48	0.03	7.58
38.752	8.30	15.91	0.03	7.58
38.784	8.30	15.91	0.05	7.60
38.816	8.30	15.91	0.05	7.60
38.848	8.20	15.82	0.05	7.60
38.880	8.20	15.82	0.11	7.66
38.912	8.20	15.82	0.11	7.66
38.944	8.65	16.26	0.11	7.66
38.976	8.65	16.26	0.01	7.56
39.008	8.65	16.26	0.01	7.56
39.040	9.66	17.27	0.01	7.56
39.072	9.66	17.27	0.11	7.66
39.104	9.66	17.27	0.11	7.66
39.136	10.17	17.79	0.11	7.66
39.168	10.17	17.79	0.03	7.58
39.200	10.17	17.79	0.03	7.58
39.232	9.33	16.94	0.03	7.58
39.264	9.33	16.94	0.05	7.60
39.296	9.33	16.94	0.05	7.60
39.328	9.02	16.63	0.05	7.60
39.360	9.02	16.63	0.11	7.66
39.392	9.02	16.63	0.11	7.66
39.424	8.33	15.94	0.11	7.66
39.456	8.33	15.94	0.01	7.56
39.488	8.33	15.94	0.01	7.56
39.520	8.10	15.72	0.01	7.56
39.552	8.10	15.72	0.10	7.66
39.584	8.10	15.72	0.10	7.66
39.616	8.40	16.02	0.10	7.66
39.648	8.40	16.02	0.03	7.58
39.680	8.40	16.02	0.03	7.58
39.712	8.73	16.34	0.03	7.58
39.744	8.73	16.34	0.06	7.61
39.776	8.73	16.34	0.06	7.61
39.808	8.78	16.39	0.06	7.61
39.840	8.78	16.39	0.10	7.66
39.872	8.78	16.39	0.10	7.66
39.904	8.52	16.14	0.10	7.66
39.936	8.52	16.14	0.01	7.57
39.968	8.52	16.14	0.01	7.57
40.000	8.65	16.26	0.01	7.57
40.032	8.65	16.26	0.10	7.65
40.064	8.65	16.26	0.10	7.65
40.096	8.51	16.12	0.10	7.65
40.128	8.51	16.12	0.03	7.58
40.160	8.51	16.12	0.03	7.58
40.192	8.35	15.96	0.03	7.58
40.224	8.35	15.96	0.06	7.61
40.256	8.35	15.96	0.06	7.61
40.288	7.99	15.61	0.06	7.61
40.320	7.99	15.61	0.10	7.65
40.352	7.99	15.61	0.10	7.65
40.384	8.21	15.83	0.10	7.65
40.416	8.21	15.83	0.01	7.57
40.448	8.21	15.83	0.01	7.57
40.480	8.13	15.75	0.01	7.57
40.512	8.13	15.75	0.11	7.66
40.544	8.13	15.75	0.11	7.66
40.576	8.66	16.27	0.11	7.66
40.608	8.66	16.27	0.03	7.58
40.640	8.66	16.27	0.03	7.58
40.672	8.14	15.75	0.03	7.58
40.704	8.14	15.75	0.06	7.62
40.736	8.14	15.75	0.06	7.62
40.768	8.36	15.98	0.06	7.62
40.800	8.36	15.98	0.10	7.65
40.832	8.36	15.98	0.10	7.65
40.864	7.55	15.16	0.10	7.65
40.896	7.55	15.16	0.01	7.56
40.928	7.55	15.16	0.01	7.56
40.960	7.64	15.25	0.01	7.56
40.992	7.64	15.25	0.11	7.66
41.024	7.64	15.25	0.11	7.66
41.056	10.49	18.10	0.11	7.66
41.088	10.49	18.10	0.03	7.58
41.120	10.49	18.10	0.03	7.58
41.152	11.48	19.09	0.03	7.58
41.184	11.48	19.09	0.07	7.62
41.216	11.48	19.09	0.07	7.62
41.248	11.05	18.67	0.07	7.62
41.280	11.05	18.67	0.10	7.65
41.312	11.05	18.67	0.10	7.65
41.344	10.38	18.00	0.10	7.65
41.376	10.38	18.00	0.01	7.56
41.408	10.38	18.00	0.01	7.56
41.440	10.47	18.08	0.01	7.56
41.472	10.47	18.08	0.11	7.66
41.504	10.47	18.08	0.11	7.66
41.536	10.47	18.09	0.11	7.66
41.568	10.47	18.09	0.03	7.58
41.600	10.47	18.09	0.03	7.58
41.632	8.86	16.48	0.03	7.58
41.664	8.86	16.48	0.07	7.62
41.696	8.86	16.48	0.07	7.62
41.728	9.96	17.58	0.07	7.62
41.760	9.96	17.58	0.09	7.64
41.792	9.96	17.58	0.09	7.64
41.824	8.98	16.59	0.09	7.64
41.856	8.98	16.59	0.01	7.56
41.888	8.98	16.59	0.01	7.56
41.920	9.21	16.83	0.01	7.56
41.952	9.21	16.83	0.11	7.67
41.984	9.21	16.83	0.11	7.67
42.016	8.26	15.87	0.11	7.67
42.048	8.26	15.87	0.03	7.58
42.080	8.26	15.87	0.03	7.58
42.112	8.49	16.10	0.03	7.58
42.144	8.49	16.10	0.07	7.63
42.176	8.49	16.10	0.07	7.63
42.208	8.42	16.04	0.07	7.63
42.240	8.42	16.04	0.09	7.65
42.272	8.42	16.04	0.09	7.65
42.304	8.04	15.65	0.09	7.65
42.336	8.04	15.65	0.01	7.57
42.368	8.04	15.65	0.01	7.57
42.400	8.09	15.71	0.01	7.57
42.432	8.09	15.71	0.11	7.67
42.464	8.09	15.71	0.11	7.67
42.496	7.88	15.49	0.11	7.67
42.528	7.88	15.49	0.03	7.58
42.560	7.88	15.49	0.03	7.58
42.592	7.98	15.59	0.03	7.58
42.624	7.98	15.59	0.07	7.63
42.656	7.98	15.59	0.07	7.63
42.688	8.22	15.83	0.07	7.63
42.720	8.22	15.83	0.09	7.64
42.752	8.22	15.83	0.09	7.64
42.784	8.03	15.64	0.09	7.64
42.816	8.03	15.64	0.01	7.57
42.848	8.03	15.64	0.01	7.57
42.880	8.09	15.70	0.01	7.57
42.912	8.09	15.70	0.11	7.67
42.944	8.09	15.70	0.11	7.67
42.976	8.16	15.78	0.11	7.67
43.008	8.16	15.78	0.02	7.58
43.040	8.16	15.78	0.02	7.58
43.072	8.03	15.64	0.02	7.58
43.104	8.03	15.64	0.08	7.63
43.136	8.03	15.64	0.08	7.63
43.168	8.33	15.94	0.08	7.63
43.200	8.33	15.94	0.09	7.64
43.232	8.33	15.94	0.09	7.64
43.264	8.98	16.59	0.09	7.64
43.296	8.98	16.59	0.01	7.57
43.328	8.98	16.59	0.01	7.57
43.360	10.52	18.13	0.01	7.57
43.392	10.52	18.13	0.12	7.67
43.424	10.52	18.13	0.12	7.67
43.456	10.43	18.04	0.12	7.67
43.488	10.43	18.04	0.02	7.58
43.520	10.43	18.04	0.02	7.58
43.552	11.91	19.53	0.02	7.58
43.584	11.91	19.53	0.08	7.63
43.616	11.91	19.53	0.08	7.63
43.648	12.29	19.90	0.08	7.63
43.680	12.29	19.90	0.08	7.64
43.712	12.29	19.90	0.08	7.64
43.744	11.83	19.44	0.08	7.64
43.776	11.83	19.44	0.01	7.57
43.808	11.83	19.44	0.01	7.57
43.840	11.25	18.87	0.01	7.57
43.872	11.25	18.87	0.11	7.67
43.904	11.25	18.87	0.11	7.67
43.936	10.89	18.50	0.11	7.67
43.968	10.89	18.50	0.02	7.58
44.000	10.89	18.50	0.02	7.58
44.032	11.15	18.76	0.02	7.58
44.064	11.15	18.76	0.08	7.63
44.096	11.15	18.76	0.08	7.63
44.128	11.40	19.01	0.08	7.63
44.160	11.40	19.01	0.08	7.63
44.192	11.40	19.01	0.08	7.63
44.224	11.49	19.10	0.08	7.63
44.256	11.49	19.10	0.01	7.56
44.288	11.49	19.10	0.01	7.56
44.320	8.39	16.01	0.01	7.56
44.352	8.39	16.01	0.12	7.67
44.384	8.39	16.01	0.12	7.67
44.416	8.12	15.73	0.12	7.67
44.448	8.12	15.73	0.02	7.58
44.480	8.12	15.73	0.02	7.58
44.512	8.01	15.62	0.02	7.58
44.544	8.01	15.62	0.08	7.64
44.576	8.01	15.62	0.08	7.64
44.608	8.49	16.10	0.08	7.64
44.640	8.49	16.10	0.07	7.63
44.672	8.49	16.10	0.07	7.63
44.704	8.49	16.10	0.07	7.63
44.736	8.49	16.10	0.01	7.57
44.768	8.49	16.10	0.01	7.57
44.800	8.84	16.45	0.01	7.57
44.832	8.84	16.45	0.11	7.67
44.864	8.84	16.45	0.11	7.67
44.896	8.77	16.38	0.11	7.67
44.928	8.77	16.38	0.02	7.57
44.960	8.77	16.38	0.02	7.57
44.992	8.52	16.14	0.02	7.57
45.024	8.52	16.14	0.09	7.64
45.056	8.52	16.14	0.09	7.64
45.088	9.81	17.42	0.09	7.64
45.120	9.81	17.42	0.07	7.62
45.152	9.81	17.42	0.07	7.62
45.184	9.42	17.04	0.07	7.62
45.216	9.42	17.04	0.02	7.57
45.248	9.42	17.04	0.02	7.57
45.280	10.41	18.02	0.02	7.57
45.312	10.41	18.02	0.12	7.67
45.344	10.41	18.02	0.12	7.67
45.376	11.05	18.66	0.12	7.67
45.408	11.05	18.66	0.02	7.58
45.440	11.05	18.66	0.02	7.58
45.472	8.71	16.32	0.02	7.58
45.504	8.71	16.32	0.09	7.64
45.536	8.71	16.32	0.09	7.64
45.568	8.85	16.46	0.09	7.64
45.600	8.85	16.46	0.07	7.63
45.632	8.85	16.46	0.07	7.63
45.664	8.81	16.42	0.07	7.63
45.696	8.81	16.42	0.01	7.57
45.728	8.81	16.42	0.01	7.57
45.760	8.57	16.18	0.01	7.57
45.792	8.57	16.18	0.11	7.67
45.824	8.57	16.18	0.11	7.67
45.856	8.58	16.19	0.11	7.67
45.888	8.58	16.19	0.02	7.58
45.920	8.58	16.19	0.02	7.58
45.952	8.37	15.98	0.02	7.58
45.984	8.37	15.98	0.09	7.64
46.016	8.37	15.98	0.09	7.64
46.048	8.79	16.40	0.09	7.64
46.080	8.79	16.40	0.06	7.61
46.112	8.79	16.40	0.06	7.61
46.144	8.43	16.05	0.06	7.61
46.176	8.43	16.05	0.02	7.57
46.208	8.43	16.05	0.02	7.57
46.240	9.04	16.65	0.02	7.57
46.272	9.04	16.65	0.12	7.67
46.304	9.04	16.65	0.12	7.67
46.336	9.10	16.72	0.12	7.67
46.368	9.10	16.72	0.02	7.58
46.400	9.10	16.72	0.02	7.58
46.432	8.81	16.42	0.02	7.58
46.464	8.81	16.42	0.09	7.64
46.496	8.81	16.42	0.09	7.64
46.528	9.62	17.24	0.09	7.64
46.560	9.62	17.24	0.06	7.61
46.592	9.62	17.24	0.06	7.61
46.624	9.56	17.17	0.06	7.61
46.656	9.56	17.17	0.02	7.57
46.688	9.56	17.17	0.02	7.57
46.720	9.40	17.01	0.02	7.57
46.752	9.40	17.01	0.11	7.67
46.784	9.40	17.01	0.11	7.67
46.816	9.13	16.74	0.11	7.67
46.848	9.13	16.74	0.02	7.57
46.880	9.13	16.74	0.02	7.57
46.912	8.91	16.53	0.02	7.57
46.944	8.91	16.53	0.09	7.64
46.976	8.91	16.53	0.09	7.64
47.008	9.43	17.04	0.09	7.64
47.040	9.43	17.04	0.05	7.61
47.072	9.43	17.04	0.05	7.61
47.104	9.47	17.08	0.05	7.61
47.136	9.47	17.08	0.02	7.57
47.168	9.47	17.08	0.02	7.57
47.200	9.36	16.97	0.02	7.57
47.232	9.36	16.97	0.11	7.66
47.264	9.36	16.97	0.11	7.66
47.296	9.11	16.72	0.11	7.66
47.328	9.11	16.72	0.02	7.57
47.360	9.11	16.72	0.02	7.57
47.392	9.07	16.68	0.02	7.57
47.424	9.07	16.68	0.09	7.65
47.456	9.07	16.68	0.09	7.65
47.488	9.63	17.25	0.09	7.65
47.520	9.63	17.25	0.05	7.60
47.552	9.63	17.25	0.05	7.60
47.584	9.68	17.29	0.05	7.60
47.616	9.68	17.29	0.02	7.57
47.648	9.68	17.29	0.02	7.57
47.680	10.35	17.96	0.02	7.57
47.712	10.35	17.96	0.11	7.66
47.744	10.35	17.96	0.11	7.66
47.776	12.53	20.15	0.11	7.66
47.808	12.53	20.15	0.02	7.57
47.840	12.53	20.15	0.02	7.57
47.872	12.60	20.22	0.02	7.57
47.904	12.60	20.22	0.10	7.65
47.936	12.60	20.22	0.10	7.65
47.968	12.61	20.22	0.10	7.65
48.000	12.61	20.22	0.05	7.60
48.032	12.61	20.22	0.05	7.60
48.064	12.91	20.53	0.05	7.60
48.096	12.91	20.53	0.02	7.58
48.128	12.91	20.53	0.02	7.58
48.160	12.04	19.65	0.02	7.58
48.192	12.04	19.65	0.11	7.66
48.224	12.04	19.65	0.11	7.66
48.256	8.58	16.19	0.11	7.66
48.288	8.58	16.19	0.01	7.57
48.320	8.58	16.19	0.01	7.57
48.352	8.41	16.02	0.01	7.57
48.384	8.41	16.02	0.09	7.65
48.416	8.41	16.02	0.09	7.65
48.448	8.89	16.50	0.09	7.65
48.480	8.89	16.50	0.04	7.59
48.512	8.89	16.50	0.04	7.59
48.544	8.50	16.11	0.04	7.59
48.576	8.50	16.11	0.02	7.58
48.608	8.50	16.11	0.02	7.58
48.640	9.09	16.71	0.02	7.58
48.672	9.09	16.71	0.11	7.66
48.704	9.09	16.71	0.11	7.66
48.736	10.24	17.86	0.11	7.66
48.768	10.24	17.86	0.01	7.57
48.800	10.24	17.86	0.01	7.57
48.832	8.49	16.11	0.01	7.57
48.864	8.49	16.11	0.10	7.65
48.896	8.49	16.11	0.10	7.65
48.928	8.59	16.21	0.10	7.65
48.960	8.59	16.21	0.04	7.60
48.992	8.59	16.21	0.04	7.60
49.024	8.78	16.40	0.04	7.60
49.056	8.78	16.40	0.03	7.58
49.088	8.78	16.40	0.03	7.58
49.120	9.23	16.85	0.03	7.58
49.152	9.23	16.85	0.11	7.66
49.184	9.23	16.85	0.11	7.66
49.216	9.73	17.34	0.11	7.66
49.248	9.73	17.34	0.01	7.57
49.280	9.73	17.34	0.01	7.57
49.312	9.42	17.04	0.01	7.57
49.344	9.42	17.04	0.10	7.65
49.376	9.42	17.04	0.10	7.65
49.408	9.20	16.81	0.10	7.65
49.440	9.20	16.81	0.04	7.59
49.472	9.20	16.81	0.04	7.59
49.504	9.76	17.37	0.04	7.59
49.536	9.76	17.37	0.03	7.58
49.568	9.76	17.37	0.03	7.58
49.600	9.05	16.67	0.03	7.58
49.632	9.05	16.67	0.11	7.66
49.664	9.05	16.67	0.11	7.66
49.696	9.50	17.11	0.11	7.66
49.728	9.50	17.11	0.01	7.57
49.760	9.50	17.11	0.01	7.57
49.792	9.42	17.03	0.01	7.57
49.824	9.42	17.03	0.09	7.65
49.856	9.42	17.03	0.09	7.65
49.888	9.82	17.43	0.09	7.65
49.920	9.82	17.43	0.04	7.59
49.952	9.82	17.43	0.04	7.59
49.984	10.42	18.03	0.04	7.59
50.016	10.42	18.03	0.03	7.58
50.048	10.42	18.03	0.03	7.58
50.080	9.51	17.13	0.03	7.58
50.112	9.51	17.13	0.11	7.66
50.144	9.51	17.13	0.11	7.66
50.176	9.45	17.06	0.11	7.66
50.208	9.45	17.06	0.02	7.57
50.240	9.45	17.06	0.02	7.57
50.272	9.32	16.94	0.02	7.57
50.304	9.32	16.94	0.09	7.65
50.336	9.32	16.94	0.09	7.65
50.368	9.69	17.30	0.09	7.65
50.400	9.69	17.30	0.04	7.59
50.432	9.69	17.30	0.04	7.59
50.464	11.96	19.58	0.04	7.59
50.496	11.96	19.58	0.04	7.59
50.528	11.96	19.58	0.04	7.59
50.560	12.03	19.64	0.04	7.59
50.592	12.03	19.64	0.10	7.66
50.624	12.03	19.64	0.10	7.66
50.656	9.93	17.54	0.10	7.66
50.688	9.93	17.54	0.01	7.56
50.720	9.93	17.54	0.01	7.56
50.752	10.12	17.74	0.01	7.56
50.784	10.12	17.74	0.10	7.65
50.816	10.12	17.74	0.10	7.65
50.848	9.66	17.27	0.10	7.65
50.880	9.66	17.27	0.04	7.59
50.912	9.66	17.27	0.04	7.59
50.944	10.39	18.00	0.04	7.59
50.976	10.39	18.00	0.03	7.58
51.008	10.39	18.00	0.03	7.58
51.040	9.80	17.41	0.03	7.58
51.072	9.80	17.41	0.11	7.66
51.104	9.80	17.41	0.11	7.66
51.136	9.73	17.34	0.11	7.66
51.168	9.73	17.34	0.02	7.57
51.200	9.73	17.34	0.02	7.57
51.232	9.15	16.77	0.02	7.57
51.264	9.15	16.77	0.10	7.65
51.296	9.15	16.77	0.10	7.65
51.328	9.37	16.98	0.10	7.65
51.360	9.37	16.98	0.04	7.59
51.392	9.37	16.98	0.04	7.59
51.424	9.69	17.31	0.04	7.59
51.456	9.69	17.31	0.04	7.59
51.488	9.69	17.31	0.04	7.59
51.520	10.63	18.24	0.04	7.59
51.552	10.63	18.24	0.10	7.66
51.584	10.63	18.24	0.10	7.66
51.616	10.45	18.06	0.10	7.66
51.648	10.45	18.06	0.01	7.57
51.680	10.45	18.06	0.01	7.57
51.712	10.53	18.14	0.01	7.57
51.744	10.53	18.14	0.10	7.65
51.776	10.53	18.14	0.10	7.65
51.808	10.32	17.94	0.10	7.65
51.840	10.32	17.94	0.03	7.59
51.872	10.32	17.94	0.03	7.59
51.904	10.38	17.99	0.03	7.59
51.936	10.38	17.99	0.04	7.59
51.968	10.38	17.99	0.04	7.59
52.000	10.38	17.99	0.04	7.59
52.032	10.38	17.99	0.11	7.66
52.064	10.38	17.99	0.11	7.66
52.096	10.14	17.75	0.11	7.66
52.128	10.14	17.75	0.01	7.56
52.160	10.14	17.75	0.01	7.56
52.192	10.06	17.68	0.01	7.56
52.224	10.06	17.68	0.10	7.65
52.256	10.06	17.68	0.10	7.65
52.288	9.42	17.04	0.10	7.65
52.320	9.42	17.04	0.03	7.58
52.352	9.42	17.04	0.03	7.58
52.384	8.92	16.53	0.03	7.58
52.416	8.92	16.53	0.04	7.59
52.448	8.92	16.53	0.04	7.59
52.480	9.80	17.42	0.04	7.59
52.512	9.80	17.42	0.10	7.66
52.544	9.80	17.42	0.10	7.66
52.576	9.69	17.30	0.10	7.66
52.608	9.69	17.30	0.01	7.57
52.640	9.69	17.30	0.01	7.57
52.672	9.64	17.25	0.01	7.57
52.704	9.64	17.25	0.10	7.65
52.736	9.64	17.25	0.10	7.65
52.768	9.84	17.45	0.10	7.65
52.800	9.84	17.45	0.03	7.58
52.832	9.84	17.45	0.03	7.58
52.864	9.46	17.08	0.03	7.58
52.896	9.46	17.08	0.04	7.60
52.928	9.46	17.08	0.04	7.60
52.960	9.30	16.91	0.04	7.60
52.992	9.30	16.91	0.11	7.66
53.024	9.30	16.91	0.11	7.66
53.056	9.20	16.82	0.11	7.66
53.088	9.20	16.82	0.01	7.56
53.120	9.20	16.82	0.01	7.56
53.152	9.17	16.78	0.01	7.56
53.184	9.17	16.78	0.10	7.66
53.216	9.17	16.78	0.10	7.66
53.248	9.52	17.13	0.10	7.66
53.280	9.52	17.13	0.03	7.58
53.312	9.52	17.13	0.03	7.58
53.344	9.90	17.52	0.03	7.58
53.376	9.90	17.52	0.05	7.60
53.408	9.90	17.52	0.05	7.60
53.440	9.06	16.67	0.05	7.60
53.472	9.06	16.67	0.11	7.66
53.504	9.06	16.67	0.11	7.66
53.536	9.65	17.26	0.11	7.66
53.568	9.65	17.26	0.01	7.57
53.600	9.65	17.26	0.01	7.57
53.632	9.62	17.24	0.01	7.57
53.664	9.62	17.24	0.11	7.66
53.696	9.62	17.24	0.11	7.66
53.728	9.90	17.51	0.11	7.66
53.760	9.90	17.51	0.03	7.58
53.792	9.90	17.51	0.03	7.58
53.824	9.67	17.28	0.03	7.58
53.856	9.67	17.28	0.05	7.60
53.888	9.67	17.28	0.05	7.60
53.920	9.76	17.37	0.05	7.60
53.952	9.76	17.37	0.10	7.66
53.984	9.76	17.37	0.10	7.66
54.016	9.58	17.19	0.10	7.66
54.048	9.58	17.19	0.01	7.57
54.080	9.58	17.19	0.01	7.57
54.112	9.84	17.46	0.01	7.57
54.144	9.84	17.46	0.10	7.66
54.176	9.84	17.46	0.10	7.66
54.208	10.04	17.65	0.10	7.66
54.240	10.04	17.65	0.03	7.58
54.272	10.04	17.65	0.03	7.58
54.304	9.99	17.60	0.03	7.58
54.336	9.99	17.60	0.05	7.60
54.368	9.99	17.60	0.05	7.60
54.400	10.26	17.87	0.05	7.60
54.432	10.26	17.87	0.11	7.66
54.464	10.26	17.87	0.11	7.66
54.496	10.56	18.17	0.11	7.66
54.528	10.56	18.17	0.01	7.57
54.560	10.56	18.17	0.01	7.57
54.592	10.56	18.18	0.01	7.57
54.624	10.56	18.18	0.10	7.66
54.656	10.56	18.18	0.10	7.66
54.688	10.06	17.67	0.10	7.66
54.720	10.06	17.67	0.03	7.58
54.752	10.06	17.67	0.03	7.58
54.784	10.07	17.68	0.03	7.58
54.816	10.07	17.68	0.05	7.61
54.848	10.07	17.68	0.05	7.61
54.880	9.85	17.47	0.05	7.61
54.912	9.85	17.47	0.10	7.66
54.944	9.85	17.47	0.10	7.66
54.976	9.42	17.04	0.10	7.66
55.008	9.42	17.04	0.01	7.57
55.040	9.42	17.04	0.01	7.57
55.072	10.35	17.96	0.01	7.57
55.104	10.35	17.96	0.11	7.66
55.136	10.35	17.96	0.11	7.66
55.168	9.82	17.44	0.11	7.66
55.200	9.82	17.44	0.03	7.58
55.232	9.82	17.44	0.03	7.58
55.264	9.74	17.35	0.03	7.58
55.296	9.74	17.35	0.05	7.60
55.328	9.74	17.35	0.05	7.60
55.360	10.35	17.96	0.05	7.60
55.392	10.35	17.96	0.11	7.66
55.424	10.35	17.96	0.11	7.66
55.456	9.83	17.45	0.11	7.66
55.488	9.83	17.45	0.01	7.57
55.520	9.83	17.45	0.01	7.57
55.552	10.30	17.92	0.01	7.57
55.584	10.30	17.92	0.11	7.66
55.616	10.30	17.92	0.11	7.66
55.648	10.03	17.64	0.11	7.66
55.680	10.03	17.64	0.03	7.58
55.712	10.03	17.64	0.03	7.58
55.744	9.25	16.86	0.03	7.58
55.776	9.25	16.86	0.05	7.61
55.808	9.25	16.86	0.05	7.61
55.840	10.73	18.35	0.05	7.61
55.872	10.73	18.35	0.11	7.66
55.904	10.73	18.35	0.11	7.66
55.936	9.82	17.44	0.11	7.66
55.968	9.82	17.44	0.01	7.56
56.000	9.82	17.44	0.01	7.56
56.032	10.04	17.65	0.01	7.56
56.064	10.04	17.65	0.11	7.66
56.096	10.04	17.65	0.11	7.66
56.128	9.47	17.08	0.11	7.66
56.160	9.47	17.08	0.03	7.58
56.192	9.47	17.08	0.03	7.58
56.224	9.15	16.76	0.03	7.58
56.256	9.15	16.76	0.06	7.61
56.288	9.15	16.76	0.06	7.61
56.320	9.48	17.09	0.06	7.61
56.352	9.48	17.09	0.10	7.66
56.384	9.48	17.09	0.10	7.66
56.416	8.90	16.51	0.10	7.66
56.448	8.90	16.51	0.01	7.57
56.480	8.90	16.51	0.01	7.57
56.512	9.04	16.65	0.01	7.57
56.544	9.04	16.65	0.11	7.66
56.576	9.04	16.65	0.11	7.66
56.608	9.34	16.95	0.11	7.66
56.640	9.34	16.95	0.03	7.58
56.672	9.34	16.95	0.03	7.58
56.704	9.53	17.15	0.03	7.58
56.736	9.53	17.15	0.06	7.61
56.768	9.53	17.15	0.06	7.61
56.800	9.24	16.85	0.06	7.61
56.832	9.24	16.85	0.10	7.66
56.864	9.24	16.85	0.10	7.66
56.896	9.45	17.06	0.10	7.66
56.928	9.45	17.06	0.01	7.57
56.960	9.45	17.06	0.01	7.57
56.992	9.52	17.14	0.01	7.57
57.024	9.52	17.14	0.11	7.66
57.056	9.52	17.14	0.11	7.66
57.088	9.94	17.56	0.11	7.66
57.120	9.94	17.56	0.03	7.58
57.152	9.94	17.56	0.03	7.58
57.184	9.66	17.27	0.03	7.58
57.216	9.66	17.27	0.06	7.61
57.248	9.66	17.27	0.06	7.61
57.280	9.48	17.09	0.06	7.61
57.312	9.48	17.09	0.10	7.66
57.344	9.48	17.09	0.10	7.66
57.376	9.44	17.05	0.10	7.66
57.408	9.44	17.05	0.01	7.57
57.440	9.44	17.05	0.01	7.57
57.472	9.31	16.93	0.01	7.57
57.504	9.31	16.93	0.11	7.66
57.536	9.31	16.93	0.11	7.66
57.568	9.20	16.82	0.11	7.66
57.600	9.20	16.82	0.03	7.58
57.632	9.20	16.82	0.03	7.58
57.664	9.25	16.86	0.03	7.58
57.696	9.25	16.86	0.06	7.61
57.728	9.25	16.86	0.06	7.61
57.760	9.18	16.79	0.06	7.61
57.792	9.18	16.79	0.10	7.66
57.824	9.18	16.79	0.10	7.66
57.856	9.32	16.94	0.10	7.66
57.888	9.32	16.94	0.01	7.57
57.920	9.32	16.94	0.01	7.57
57.952	9.16	16.77	0.01	7.57
57.984	9.16	16.77	0.11	7.66
58.016	9.16	16.77	0.11	7.66
58.048	10.22	17.83	0.11	7.66
58.080	10.22	17.83	0.03	7.58
58.112	10.22	17.83	0.03	7.58
58.144	10.05	17.66	0.03	7.58
58.176	10.05	17.66	0.06	7.62
58.208	10.05	17.66	0.06	7.62
58.240	8.94	16.55	0.06	7.62
58.272	8.94	16.55	0.10	7.66
58.304	8.94	16.55	0.10	7.66
58.336	8.89	16.50	0.10	7.66
58.368	8.89	16.50	0.01	7.57
58.400	8.89	16.50	0.01	7.57
58.432	10.14	17.75	0.01	7.57
58.464	10.14	17.75	0.11	7.66
58.496	10.14	17.75	0.11	7.66
58.528	9.33	16.94	0.11	7.66
58.560	9.33	16.94	0.02	7.58
58.592	9.33	16.94	0.02	7.58
58.624	8.79	16.40	0.02	7.58
58.656	8.79	16.40	0.06	7.62
58.688	8.79	16.40	0.06	7.62
58.720	9.22	16.83	0.06	7.62
58.752	9.22	16.83	0.10	7.66
58.784	9.22	16.83	0.10	7.66
58.816	8.80	16.41	0.10	7.66
58.848	8.80	16.41	0.01	7.57
58.880	8.80	16.41	0.01	7.57
58.912	8.84	16.45	0.01	7.57
58.944	8.84	16.45	0.10	7.66
58.976	8.84	16.45	0.10	7.66
59.008	8.80	16.42	0.10	7.66
59.040	8.80	16.42	0.03	7.58
59.072	8.80	16.42	0.03	7.58
59.104	8.81	16.43	0.03	7.58
59.136	8.81	16.43	0.07	7.62
59.168	8.81	16.43	0.07	7.62
59.200	8.91	16.52	0.07	7.62
59.232	8.91	16.52	0.10	7.66
59.264	8.91	16.52	0.10	7.66
59.296	9.21	16.82	0.10	7.66
59.328	9.21	16.82	0.01	7.56
59.360	9.21	16.82	0.01	7.56
59.392	8.80	16.42	0.01	7.56
59.424	8.80	16.42	0.11	7.66
59.456	8.80	16.42	0.11	7.66
59.488	9.00	16.62	0.11	7.66
59.520	9.00	16.62	0.03	7.58
59.552	9.00	16.62	0.03	7.58
59.584	8.61	16.22	0.03	7.58
59.616	8.61	16.22	0.07	7.62
59.648	8.61	16.22	0.07	7.62
59.680	9.17	16.78	0.07	7.62
59.712	9.17	16.78	0.10	7.65
59.744	9.17	16.78	0.10	7.65
59.776	9.69	17.30	0.10	7.65
59.808	9.69	17.30	0.01	7.57
59.840	9.69	17.30	0.01	7.57
59.872	9.27	16.88	0.01	7.57
59.904	9.27	16.88	0.11	7.66
59.936	9.27	16.88	0.11	7.66
59.968	9.30	16.92	0.11	7.66
60.000	9.30	16.92	0.02	7.58
60.032	9.30	16.92	0.02	7.58
60.064	9.11	16.72	0.02	7.58
60.096	9.11	16.72	0.06	7.62
60.128	9.11	16.72	0.06	7.62
60.160	9.21	16.82	0.06	7.62
60.192	9.21	16.82	0.10	7.66
60.224	9.21	16.82	0.10	7.66
60.256	9.21	16.82	0.10	7.66
60.288	9.21	16.82	0.01	7.56
60.320	9.21	16.82	0.01	7.56
60.352	10.13	17.74	0.01	7.56
60.384	10.13	17.74	0.11	7.66
60.416	10.13	17.74	0.11	7.66
60.448	9.51	17.13	0.11	7.66
60.480	9.51	17.13	0.03	7.58
60.512	9.51	17.13	0.03	7.58
60.544	9.64	17.25	0.03	7.58
60.576	9.64	17.25	0.07	7.62
60.608	9.64	17.25	0.07	7.62
60.640	9.76	17.37	0.07	7.62
60.672	9.76	17.37	0.10	7.65
60.704	9.76	17.37	0.10	7.65
60.736	10.32	17.94	0.10	7.65
60.768	10.32	17.94	0.01	7.56
60.800	10.32	17.94	0.01	7.56
60.832	9.90	17.52	0.01	7.56
60.864	9.90	17.52	0.11	7.66
60.896	9.90	17.52	0.11	7.66
60.928	9.69	17.30	0.11	7.66
60.960	9.69	17.30	0.03	7.58
60.992	9.69	17.30	0.03	7.58
61.024	9.23	16.84	0.03	7.58
61.056	9.23	16.84	0.07	7.62
61.088	9.23	16.84	0.07	7.62
61.120	9.63	17.24	0.07	7.62
61.152	9.63	17.24	0.10	7.65
61.184	9.63	17.24	0.10	7.65
61.216	9.37	16.98	0.10	7.65
61.248	9.37	16.98	0.01	7.56
61.280	9.37	16.98	0.01	7.56
61.312	9.45	17.07	0.01	7.56
61.344	9.45	17.07	0.11	7.66
61.376	9.45	17.07	0.11	7.66
61.408	9.36	16.97	0.11	7.66
61.440	9.36	16.97	0.02	7.58
61.472	9.36	16.97	0.02	7.58
61.504	9.59	17.20	0.02	7.58
61.536	9.59	17.20	0.07	7.62
61.568	9.59	17.20	0.07	7.62
61.600	9.65	17.27	0.07	7.62
61.632	9.65	17.27	0.10	7.65
61.664	9.65	17.27	0.10	7.65
61.696	9.53	17.15	0.10	7.65
61.728	9.53	17.15	0.01	7.57
61.760	9.53	17.15	0.01	7.57
61.792	9.39	17.00	0.01	7.57
61.824	9.39	17.00	0.11	7.66
61.856	9.39	17.00	0.11	7.66
61.888	9.61	17.22	0.11	7.66
61.920	9.61	17.22	0.02	7.58
61.952	9.61	17.22	0.02	7.58
61.984	9.30	16.91	0.02	7.58
62.016	9.30	16.91	0.07	7.62
62.048	9.30	16.91	0.07	7.62
62.080	9.47	17.09	0.07	7.62
62.112	9.47	17.09	0.10	7.65
62.144	9.47	17.09	0.10	7.65
62.176	10.04	17.65	0.10	7.65
62.208	10.04	17.65	0.01	7.56
62.240	10.04	17.65	0.01	7.56
62.272	9.65	17.26	0.01	7.56
62.304	9.65	17.26	0.11	7.67
62.336	9.65	17.26	0.11	7.67
62.368	9.38	16.99	0.11	7.67
62.400	9.38	16.99	0.03	7.58
62.432	9.38	16.99	0.03	7.58
62.464	9.84	17.45	0.03	7.58
62.496	9.84	17.45	0.07	7.62
62.528	9.84	17.45	0.07	7.62
62.560	10.17	17.78	0.07	7.62
62.592	10.17	17.78	0.10	7.65
62.624	10.17	17.78	0.10	7.65
62.656	10.25	17.87	0.10	7.65
62.688	10.25	17.87	0.01	7.56
62.720	10.25	17.87	0.01	7.56
62.752	10.29	17.91	0.01	7.56
62.784	10.29	17.91	0.11	7.67
62.816	10.29	17.91	0.11	7.67
62.848	9.62	17.23	0.11	7.67
62.880	9.62	17.23	0.02	7.58
62.912	9.62	17.23	0.02	7.58
62.944	9.54	17.15	0.02	7.58
62.976	9.54	17.15	0.07	7.63
63.008	9.54	17.15	0.07	7.63
63.040	9.74	17.35	0.07	7.63
63.072	9.74	17.35	0.09	7.65
63.104	9.74	17.35	0.09	7.65
63.136	9.91	17.52	0.09	7.65
63.168	9.91	17.52	0.01	7.56
63.200	9.91	17.52	0.01	7.56
63.232	10.11	17.72	0.01	7.56
63.264	10.11	17.72	0.11	7.67
63.296	10.11	17.72	0.11	7.67
63.328	11.73	19.34	0.11	7.67
63.360	11.73	19.34	0.02	7.58
63.392	11.73	19.34	0.02	7.58
63.424	12.21	19.82	0.02	7.58
63.456	12.21	19.82	0.07	7.62
63.488	12.21	19.82	0.07	7.62
63.520	11.86	19.47	0.07	7.62
63.552	11.86	19.47	0.09	7.65
63.584	11.86	19.47	0.09	7.65
63.616	11.74	19.35	0.09	7.65
63.648	11.74	19.35	0.01	7.56
63.680	11.74	19.35	0.01	7.56
63.712	11.23	18.84	0.01	7.56
63.744	11.23	18.84	0.11	7.67
63.776	11.23	18.84	0.11	7.67
63.808	10.08	17.69	0.11	7.67
63.840	10.08	17.69	0.03	7.58
63.872	10.08	17.69	0.03	7.58
63.904	9.20	16.81	0.03	7.58
63.936	9.20	16.81	0.07	7.63
63.968	9.20	16.81	0.07	7.63
64.000	9.50	17.12	0.07	7.63
64.032	9.50	17.12	0.09	7.64
64.064	9.50	17.12	0.09	7.64
64.096	10.61	18.22	0.09	7.64
64.128	10.61	18.22	0.01	7.56
64.160	10.61	18.22	0.01	7.56
64.192	11.16	18.77	0.01	7.56
64.224	11.16	18.77	0.11	7.67
64.256	11.16	18.77	0.11	7.67
64.288	11.85	19.46	0.11	7.67
64.320	11.85	19.46	0.02	7.58
64.352	11.85	19.46	0.02	7.58
64.384	12.46	20.08	0.02	7.58
64.416	12.46	20.08	0.07	7.63
64.448	12.46	20.08	0.07	7.63
64.480	12.09	19.70	0.07	7.63
64.512	12.09	19.70	0.09	7.64
64.544	12.09	19.70	0.09	7.64
64.576	12.34	19.95	0.09	7.64
64.608	12.34	19.95	0.01	7.57
64.640	12.34	19.95	0.01	7.57
64.672	12.56	20.17	0.01	7.57
64.704	12.56	20.17	0.11	7.67
64.736	12.56	20.17	0.11	7.67
64.768	11.74	19.35	0.11	7.67
64.800	11.74	19.35	0.03	7.58
64.832	11.74	19.35	0.03	7.58
64.864	9.14	16.75	0.03	7.58
64.896	9.14	16.75	0.07	7.63
64.928	9.14	16.75	0.07	7.63
64.960	9.79	17.40	0.07	7.63
64.992	9.79	17.40	0.09	7.65
65.024	9.79	17.40	0.09	7.65
65.056	9.70	17.31	0.09	7.65
65.088	9.70	17.31	0.01	7.57
65.120	9.70	17.31	0.01	7.57
65.152	9.91	17.53	0.01	7.57
65.184	9.91	17.53	0.11	7.67
65.216	9.91	17.53	0.11	7.67
65.248	9.71	17.33	0.11	7.67
65.280	9.71	17.33	0.03	7.58
65.312	9.71	17.33	0.03	7.58
65.344	9.60	17.21	0.03	7.58
65.376	9.60	17.21	0.07	7.63
65.408	9.60	17.21	0.07	7.63
65.440	9.65	17.26	0.07	7.63
65.472	9.65	17.26	0.10	7.65
65.504	9.65	17.26	0.10	7.65
65.536	9.47	17.08	0.10	7.65
65.568	9.47	17.08	0.01	7.57
65.600	9.47	17.08	0.01	7.57
65.632	9.80	17.42	0.01	7.57
65.664	9.80	17.42	0.12	7.67
65.696	9.80	17.42	0.12	7.67
65.728	9.64	17.25	0.12	7.67
65.760	9.64	17.25	0.02	7.58
65.792	9.64	17.25	0.02	7.58
65.824	9.88	17.49	0.02	7.58
65.856	9.88	17.49	0.07	7.63
65.888	9.88	17.49	0.07	7.63
65.920	10.46	18.07	0.07	7.63
65.952	10.46	18.07	0.09	7.65
65.984	10.46	18.07	0.09	7.65
66.016	10.44	18.05	0.09	7.65
66.048	10.44	18.05	0.01	7.57
66.080	10.44	18.05	0.01	7.57
66.112	10.30	17.92	0.01	7.57
66.144	10.30	17.92	0.12	7.67
66.176	10.30	17.92	0.12	7.67
66.208	10.09	17.70	0.12	7.67
66.240	10.09	17.70	0.02	7.58
66.272	10.09	17.70	0.02	7.58
66.304	10.67	18.28	0.02	7.58
66.336	10.67	18.28	0.08	7.63
66.368	10.67	18.28	0.08	7.63
66.400	9.74	17.35	0.08	7.63
66.432	9.74	17.35	0.09	7.64
66.464	9.74	17.35	0.09	7.64
66.496	9.72	17.33	0.09	7.64
66.528	9.72	17.33	0.01	7.57
66.560	9.72	17.33	0.01	7.57
66.592	9.72	17.34	0.01	7.57
66.624	9.72	17.34	0.11	7.67
66.656	9.72	17.34	0.11	7.67
66.688	9.55	17.17	0.11	7.67
66.720	9.55	17.17	0.03	7.58
66.752	9.55	17.17	0.03	7.58
66.784	9.22	16.84	0.03	7.58
66.816	9.22	16.84	0.08	7.63
66.848	9.22	16.84	0.08	7.63
66.880	9.33	16.94	0.08	7.63
66.912	9.33	16.94	0.09	7.64
66.944	9.33	16.94	0.09	7.64
66.976	9.43	17.04	0.09	7.64
67.008	9.43	17.04	0.02	7.57
67.040	9.43	17.04	0.02	7.57
67.072	9.52	17.14	0.02	7.57
67.104	9.52	17.14	0.11	7.67
67.136	9.52	17.14	0.11	7.67
67.168	9.48	17.09	0.11	7.67
67.200	9.48	17.09	0.03	7.58
67.232	9.48	17.09	0.03	7.58
67.264	9.29	16.90	0.03	7.58
67.296	9.29	16.90	0.08	7.63
67.328	9.29	16.90	0.08	7.63
67.360	9.20	16.82	0.08	7.63
67.392	9.20	16.82	0.09	7.64
67.424	9.20	16.82	0.09	7.64
67.456	9.04	16.66	0.09	7.64
67.488	9.04	16.66	0.01	7.57
67.520	9.04	16.66	0.01	7.57
67.552	9.17	16.78	0.01	7.57
67.584	9.17	16.78	0.11	7.67
67.616	9.17	16.78	0.11	7.67
67.648	9.27	16.89	0.11	7.67
67.680	9.27	16.89	0.03	7.58
67.712	9.27	16.89	0.03	7.58
67.744	8.90	16.52	0.03	7.58
67.776	8.90	16.52	0.08	7.63
67.808	8.90	16.52	0.08	7.63
67.840	8.99	16.60	0.08	7.63
67.872	8.99	16.60	0.08	7.64
67.904	8.99	16.60	0.08	7.64
67.936	9.10	16.72	0.08	7.64
67.968	9.10	16.72	0.01	7.57
68.000	9.10	16.72	0.01	7.57
68.032	9.16	16.78	0.01	7.57
68.064	9.16	16.78	0.11	7.67
68.096	9.16	16.78	0.11	7.67
68.128	9.47	17.09	0.11	7.67
68.160	9.47	17.09	0.02	7.58
68.192	9.47	17.09	0.02	7.58
68.224	8.85	16.46	0.02	7.58
68.256	8.85	16.46	0.08	7.63
68.288	8.85	16.46	0.08	7.63
68.320	8.93	16.54	0.08	7.63
68.352	8.93	16.54	0.08	7.64
68.384	8.93	16.54	0.08	7.64
68.416	8.59	16.20	0.08	7.64
68.448	8.59	16.20	0.01	7.56
68.480	8.59	16.20	0.01	7.56
68.512	8.74	16.35	0.01	7.56
68.544	8.74	16.35	0.11	7.67
68.576	8.74	16.35	0.11	7.67
68.608	9.44	17.05	0.11	7.67
68.640	9.44	17.05	0.03	7.58
68.672	9.44	17.05	0.03	7.58
68.704	9.16	16.78	0.03	7.58
68.736	9.16	16.78	0.08	7.64
68.768	9.16	16.78	0.08	7.64
68.800	9.20	16.82	0.08	7.64
68.832	9.20	16.82	0.08	7.63
68.864	9.20	16.82	0.08	7.63
68.896	8.89	16.50	0.08	7.63
68.928	8.89	16.50	0.01	7.57
68.960	8.89	16.50	0.01	7.57
68.992	9.53	17.15	0.01	7.57
69.024	9.53	17.15	0.12	7.67
69.056	9.53	17.15	0.12	7.67
69.088	9.07	16.68	0.12	7.67
69.120	9.07	16.68	0.02	7.58
69.152	9.07	16.68	0.02	7.58
69.184	9.11	16.72	0.02	7.58
69.216	9.11	16.72	0.08	7.63
69.248	9.11	16.72	0.08	7.63
69.280	9.07	16.68	0.08	7.63
69.312	9.07	16.68	0.08	7.63
69.344	9.07	16.68	0.08	7.63
69.376	8.75	16.36	0.08	7.63
69.408	8.75	16.36	0.01	7.57
69.440	8.75	16.36	0.01	7.57
69.472	8.88	16.49	0.01	7.57
69.504	8.88	16.49	0.11	7.67
69.536	8.88	16.49	0.11	7.67
69.568	8.87	16.48	0.11	7.67
69.600	8.87	16.48	0.02	7.58
69.632	8.87	16.48	0.02	7.58
69.664	9.06	16.67	0.02	7.58
69.696	9.06	16.67	0.09	7.64
69.728	9.06	16.67	0.09	7.64
69.760	9.11	16.73	0.09	7.64
69.792	9.11	16.73	0.08	7.63
69.824	9.11	16.73	0.08	7.63
69.856	8.96	16.57	0.08	7.63
69.888	8.96	16.57	0.01	7.57
69.920	8.96	16.57	0.01	7.57
69.952	9.39	17.00	0.01	7.57
69.984	9.39	17.00	0.11	7.67
70.016	9.39	17.00	0.11	7.67
70.048	9.52	17.13	0.11	7.67
70.080	9.52	17.13	0.02	7.58
70.112	9.52	17.13	0.02	7.58
70.144	8.91	16.52	0.02	7.58
70.176	8.91	16.52	0.08	7.64
70.208	8.91	16.52	0.08	7.64
70.240	9.33	16.94	0.08	7.64
70.272	9.33	16.94	0.08	7.63
70.304	9.33	16.94	0.08	7.63
70.336	9.06	16.67	0.08	7.63
70.368	9.06	16.67	0.01	7.57
70.400	9.06	16.67	0.01	7.57
70.432	9.92	17.54	0.01	7.57
70.464	9.92	17.54	0.11	7.67
70.496	9.92	17.54	0.11	7.67
70.528	9.28	16.90	0.11	7.67
70.560	9.28	16.90	0.02	7.58
70.592	9.28	16.90	0.02	7.58
70.624	9.26	16.88	0.02	7.58
70.656	9.26	16.88	0.09	7.64
70.688	9.26	16.88	0.09	7.64
70.720	9.77	17.39	0.09	7.64
70.752	9.77	17.39	0.08	7.63
70.784	9.77	17.39	0.08	7.63
70.816	9.45	17.07	0.08	7.63
70.848	9.45	17.07	0.01	7.57
70.880	9.45	17.07	0.01	7.57
70.912	9.71	17.32	0.01	7.57
70.944	9.71	17.32	0.11	7.67
70.976	9.71	17.32	0.11	7.67
71.008	9.34	16.95	0.11	7.67
71.040	9.34	16.95	0.02	7.58
71.072	9.34	16.95	0.02	7.58
71.104	8.78	16.39	0.02	7.58
71.136	8.78	16.39	0.08	7.64
71.168	8.78	16.39	0.08	7.64
71.200	8.92	16.53	0.08	7.64
71.232	8.92	16.53	0.07	7.63
71.264	8.92	16.53	0.07	7.63
71.296	8.61	16.22	0.07	7.63
71.328	8.61	16.22	0.01	7.57
71.360	8.61	16.22	0.01	7.57
71.392	8.44	16.05	0.01	7.57
71.424	8.44	16.05	0.11	7.67
71.456	8.44	16.05	0.11	7.67
71.488	8.22	15.83	0.11	7.67
71.520	8.22	15.83	0.02	7.57
71.552	8.22	15.83	0.02	7.57
71.584	8.56	16.17	0.02	7.57
71.616	8.56	16.17	0.09	7.64
71.648	8.56	16.17	0.09	7.64
71.680	8.89	16.50	0.09	7.64
71.712	8.89	16.50	0.07	7.62
71.744	8.89	16.50	0.07	7.62
71.776	9.25	16.86	0.07	7.62
71.808	9.25	16.86	0.02	7.57
71.840	9.25	16.86	0.02	7.57
71.872	8.80	16.42	0.02	7.57
71.904	8.80	16.42	0.12	7.67
71.936	8.80	16.42	0.12	7.67
71.968	9.01	16.62	0.12	7.67
72.000	9.01	16.62	0.02	7.58
72.032	9.01	16.62	0.02	7.58
72.064	8.64	16.26	0.02	7.58
72.096	8.64	16.26	0.09	7.64
72.128	8.64	16.26	0.09	7.64
72.160	8.76	16.38	0.09	7.64
72.192	8.76	16.38	0.07	7.62
72.224	8.76	16.38	0.07	7.62
72.256	8.69	16.30	0.07	7.62
72.288	8.69	16.30	0.01	7.57
72.320	8.69	16.30	0.01	7.57
72.352	9.90	17.52	0.01	7.57
72.384	9.90	17.52	0.12	7.67
72.416	9.90	17.52	0.12	7.67
72.448	8.82	16.43	0.12	7.67
72.480	8.82	16.43	0.02	7.58
72.512	8.82	16.43	0.02	7.58
72.544	8.46	16.08	0.02	7.58
72.576	8.46	16.08	0.09	7.64
72.608	8.46	16.08	0.09	7.64
72.640	8.93	16.54	0.09	7.64
72.672	8.93	16.54	0.07	7.62
72.704	8.93	16.54	0.07	7.62
72.736	8.48	16.09	0.07	7.62
72.768	8.48	16.09	0.01	7.57
72.800	8.48	16.09	0.01	7.57
72.832	8.72	16.34	0.01	7.57
72.864	8.72	16.34	0.12	7.67
72.896	8.72	16.34	0.12	7.67
72.928	8.97	16.59	0.12	7.67
72.960	8.97	16.59	0.02	7.58
72.992	8.97	16.59	0.02	7.58
73.024	9.37	16.98	0.02	7.58
73.056	9.37	16.98	0.09	7.64
73.088	9.37	16.98	0.09	7.64
73.120	9.30	16.91	0.09	7.64
73.152	9.30	16.91	0.07	7.62
73.184	9.30	16.91	0.07	7.62
73.216	9.04	16.65	0.07	7.62
73.248	9.04	16.65	0.01	7.57
73.280	9.04	16.65	0.01	7.57
73.312	8.68	16.30	0.01	7.57
73.344	8.68	16.30	0.11	7.67
73.376	8.68	16.30	0.11	7.67
73.408	8.40	16.02	0.11	7.67
73.440	8.40	16.02	0.02	7.57
73.472	8.40	16.02	0.02	7.57
73.504	8.56	16.17	0.02	7.57
73.536	8.56	16.17	0.09	7.64
73.568	8.56	16.17	0.09	7.64
73.600	8.64	16.26	0.09	7.64
73.632	8.64	16.26	0.07	7.62
73.664	8.64	16.26	0.07	7.62
73.696	8.68	16.30	0.07	7.62
73.728	8.68	16.30	0.01	7.57
73.760	8.68	16.30	0.01	7.57
73.792	9.29	16.90	0.01	7.57
73.824	9.29	16.90	0.12	7.67
73.856	9.29	16.90	0.12	7.67
73.888	8.72	16.33	0.12	7.67
73.920	8.72	16.33	0.02	7.57
73.952	8.72	16.33	0.02	7.57
73.984	9.71	17.32	0.02	7.57
74.016	9.71	17.32	0.09	7.65
74.048	9.71	17.32	0.09	7.65
74.080	9.41	17.02	0.09	7.65
74.112	9.41	17.02	0.07	7.62
74.144	9.41	17.02	0.07	7.62
74.176	8.82	16.43	0.07	7.62
74.208	8.82	16.43	0.01	7.57
74.240	8.82	16.43	0.01	7.57
74.272	8.78	16.39	0.01	7.57
74.304	8.78	16.39	0.11	7.67
74.336	8.78	16.39	0.11	7.67
74.368	9.42	17.04	0.11	7.67
74.400	9.42	17.04	0.02	7.58
74.432	9.42	17.04	0.02	7.58
74.464	10.31	17.93	0.02	7.58
74.496	10.31	17.93	0.09	7.64
74.528	10.31	17.93	0.09	7.64
74.560	11.42	19.03	0.09	7.64
74.592	11.42	19.03	0.06	7.62
74.624	11.42	19.03	0.06	7.62
74.656	9.84	17.45	0.06	7.62
74.688	9.84	17.45	0.01	7.56
74.720	9.84	17.45	0.01	7.56
74.752	9.28	16.89	0.01	7.56
74.784	9.28	16.89	0.11	7.67
74.816	9.28	16.89	0.11	7.67
74.848	10.60	18.21	0.11	7.67
74.880	10.60	18.21	0.02	7.58
74.912	10.60	18.21	0.02	7.58
74.944	11.36	18.97	0.02	7.58
74.976	11.36	18.97	0.09	7.64
75.008	11.36	18.97	0.09	7.64
75.040	10.67	18.29	0.09	7.64
75.072	10.67	18.29	0.06	7.62
75.104	10.67	18.29	0.06	7.62
75.136	10.52	18.13	0.06	7.62
75.168	10.52	18.13	0.01	7.56
75.200	10.52	18.13	0.01	7.56
75.232	10.60	18.22	0.01	7.56
75.264	10.60	18.22	0.11	7.67
75.296	10.60	18.22	0.11	7.67
75.328	11.44	19.06	0.11	7.67
75.360	11.44	19.06	0.02	7.58
75.392	11.44	19.06	0.02	7.58
75.424	11.52	19.13	0.02	7.58
75.456	11.52	19.13	0.09	7.64
75.488	11.52	19.13	0.09	7.64
75.520	11.03	18.64	0.09	7.64
75.552	11.03	18.64	0.06	7.61
75.584	11.03	18.64	0.06	7.61
75.616	11.12	18.73	0.06	7.61
75.648	11.12	18.73	0.01	7.57
75.680	11.12	18.73	0.01	7.57
75.712	10.96	18.57	0.01	7.57
75.744	10.96	18.57	0.12	7.67
75.776	10.96	18.57	0.12	7.67
75.808	9.97	17.58	0.12	7.67
75.840	9.97	17.58	0.02	7.57
75.872	9.97	17.58	0.02	7.57
75.904	10.32	17.94	0.02	7.57
75.936	10.32	17.94	0.09	7.64
75.968	10.32	17.94	0.09	7.64
76.000	10.77	18.39	0.09	7.64
76.032	10.77	18.39	0.06	7.62
76.064	10.77	18.39	0.06	7.62
76.096	10.17	17.78	0.06	7.62
76.128	10.17	17.78	0.01	7.57
76.160	10.17	17.78	0.01	7.57
76.192	9.55	17.16	0.01	7.57
76.224	9.55	17.16	0.11	7.66
76.256	9.55	17.16	0.11	7.66
76.288	9.22	16.84	0.11	7.66
76.320	9.22	16.84	0.02	7.57
76.352	9.22	16.84	0.02	7.57
76.384	11.22	18.83	0.02	7.57
76.416	11.22	18.83	0.09	7.64
76.448	11.22	18.83	0.09	7.64
76.480	9.57	17.19	0.09	7.64
76.512	9.57	17.19	0.06	7.61
76.544	9.57	17.19	0.06	7.61
76.576	10.11	17.72	0.06	7.61
76.608	10.11	17.72	0.01	7.57
76.640	10.11	17.72	0.01	7.57
76.672	10.33	17.94	0.01	7.57
76.704	10.33	17.94	0.11	7.67
76.736	10.33	17.94	0.11	7.67
76.768	10.06	17.68	0.11	7.67
76.800	10.06	17.68	0.02	7.57
76.832	10.06	17.68	0.02	7.57
76.864	9.98	17.59	0.02	7.57
76.896	9.98	17.59	0.09	7.64
76.928	9.98	17.59	0.09	7.64
76.960	9.98	17.59	0.09	7.64
76.992	9.98	17.59	0.06	7.62
77.024	9.98	17.59	0.06	7.62
77.056	10.38	17.99	0.06	7.62
77.088	10.38	17.99	0.01	7.57
77.120	10.38	17.99	0.01	7.57
77.152	10.27	17.88	0.01	7.57
77.184	10.27	17.88	0.11	7.67
77.216	10.27	17.88	0.11	7.67
77.248	9.60	17.21	0.11	7.67
77.280	9.60	17.21	0.02	7.57
77.312	9.60	17.21	0.02	7.57
77.344	9.31	16.93	0.02	7.57
77.376	9.31	16.93	0.09	7.65
77.408	9.31	16.93	0.09	7.65
77.440	9.79	17.40	0.09	7.65
77.472	9.79	17.40	0.06	7.62
77.504	9.79	17.40	0.06	7.62
77.536	10.03	17.64	0.06	7.62
77.568	10.03	17.64	0.01	7.57
77.600	10.03	17.64	0.01	7.57
77.632	10.28	17.89	0.01	7.57
77.664	10.28	17.89	0.12	7.67
77.696	10.28	17.89	0.12	7.67
77.728	10.15	17.76	0.12	7.67
77.760	10.15	17.76	0.02	7.58
77.792	10.15	17.76	0.02	7.58
77.824	9.83	17.45	0.02	7.58
77.856	9.83	17.45	0.09	7.64
77.888	9.83	17.45	0.09	7.64
77.920	9.72	17.34	0.09	7.64
77.952	9.72	17.34	0.06	7.62
77.984	9.72	17.34	0.06	7.62
78.016	9.83	17.44	0.06	7.62
78.048	9.83	17.44	0.01	7.57
78.080	9.83	17.44	0.01	7.57
78.112	9.41	17.02	0.01	7.57
78.144	9.41	17.02	0.11	7.67
78.176	9.41	17.02	0.11	7.67
78.208	9.68	17.30	0.11	7.67
78.240	9.68	17.30	0.02	7.57
78.272	9.68	17.30	0.02	7.57
78.304	9.73	17.35	0.02	7.57
78.336	9.73	17.35	0.09	7.64
78.368	9.73	17.35	0.09	7.64
78.400	9.95	17.56	0.09	7.64
78.432	9.95	17.56	0.06	7.62
78.464	9.95	17.56	0.06	7.62
78.496	9.47	17.08	0.06	7.62
78.528	9.47	17.08	0.02	7.57
78.560	9.47	17.08	0.02	7.57
78.592	9.62	17.23	0.02	7.57
78.624	9.62	17.23	0.11	7.67
78.656	9.62	17.23	0.11	7.67
78.688	9.87	17.48	0.11	7.67
78.720	9.87	17.48	0.02	7.57
78.752	9.87	17.48	0.02	7.57
78.784	9.75	17.36	0.02	7.57
78.816	9.75	17.36	0.09	7.64
78.848	9.75	17.36	0.09	7.64
78.880	9.87	17.48	0.09	7.64
78.912	9.87	17.48	0.06	7.62
78.944	9.87	17.48	0.06	7.62
78.976	9.62	17.24	0.06	7.62
79.008	9.62	17.24	0.02	7.57
79.040	9.62	17.24	0.02	7.57
79.072	9.97	17.58	0.02	7.57
79.104	9.97	17.58	0.12	7.67
79.136	9.97	17.58	0.12	7.67
79.168	9.93	17.55	0.12	7.67
79.200	9.93	17.55	0.02	7.57
79.232	9.93	17.55	0.02	7.57
79.264	9.32	16.94	0.02	7.57
79.296	9.32	16.94	0.09	7.64
79.328	9.32	16.94	0.09	7.64
79.360	9.31	16.92	0.09	7.64
79.392	9.31	16.92	0.06	7.62
79.424	9.31	16.92	0.06	7.62
79.456	10.33	17.95	0.06	7.62
79.488	10.33	17.95	0.01	7.57
79.520	10.33	17.95	0.01	7.57
79.552	11.08	18.69	0.01	7.57
79.584	11.08	18.69	0.12	7.67
79.616	11.08	18.69	0.12	7.67
79.648	10.73	18.34	0.12	7.67
79.680	10.73	18.34	0.02	7.58
79.712	10.73	18.34	0.02	7.58
79.744	9.55	17.17	0.02	7.58
79.776	9.55	17.17	0.09	7.64
79.808	9.55	17.17	0.09	7.64
79.840	10.17	17.79	0.09	7.64
79.872	10.17	17.79	0.07	7.62
79.904	10.17	17.79	0.07	7.62
79.936	9.84	17.46	0.07	7.62
79.968	9.84	17.46	0.01	7.57
80.000	9.84	17.46	0.01	7.57
80.032	9.79	17.40	0.01	7.57
80.064	9.79	17.40	0.12	7.67
80.096	9.79	17.40	0.12	7.67
80.128	9.78	17.39	0.12	7.67
80.160	9.78	17.39	0.02	7.58
80.192	9.78	17.39	0.02	7.58
80.224	9.90	17.52	0.02	7.58
80.256	9.90	17.52	0.09	7.64
80.288	9.90	17.52	0.09	7.64
80.320	9.60	17.22	0.09	7.64
80.352	9.60	17.22	0.07	7.62
80.384	9.60	17.22	0.07	7.62
80.416	9.10	16.72	0.07	7.62
80.448	9.10	16.72	0.01	7.57
80.480	9.10	16.72	0.01	7.57
80.512	9.55	17.16	0.01	7.57
80.544	9.55	17.16	0.12	7.67
80.576	9.55	17.16	0.12	7.67
80.608	9.57	17.19	0.12	7.67
80.640	9.57	17.19	0.02	7.57
80.672	9.57	17.19	0.02	7.57
80.704	9.94	17.55	0.02	7.57
80.736	9.94	17.55	0.08	7.64
80.768	9.94	17.55	0.08	7.64
80.800	10.00	17.61	0.08	7.64
80.832	10.00	17.61	0.07	7.63
80.864	10.00	17.61	0.07	7.63
80.896	9.65	17.26	0.07	7.63
80.928	9.65	17.26	0.01	7.57
80.960	9.65	17.26	0.01	7.57
80.992	9.81	17.42	0.01	7.57
81.024	9.81	17.42	0.12	7.67
81.056	9.81	17.42	0.12	7.67
81.088	9.65	17.26	0.12	7.67
81.120	9.65	17.26	0.02	7.58
81.152	9.65	17.26	0.02	7.58
81.184	9.89	17.50	0.02	7.58
81.216	9.89	17.50	0.09	7.64
81.248	9.89	17.50	0.09	7.64
81.280	9.82	17.43	0.09	7.64
81.312	9.82	17.43	0.07	7.62
81.344	9.82	17.43	0.07	7.62
81.376	9.69	17.30	0.07	7.62
81.408	9.69	17.30	0.01	7.57
81.440	9.69	17.30	0.01	7.57
81.472	9.23	16.84	0.01	7.57
81.504	9.23	16.84	0.12	7.67
81.536	9.23	16.84	0.12	7.67
81.568	9.66	17.27	0.12	7.67
81.600	9.66	17.27	0.02	7.58
81.632	9.66	17.27	0.02	7.58
81.664	9.91	17.52	0.02	7.58
81.696	9.91	17.52	0.09	7.64
81.728	9.91	17.52	0.09	7.64
81.760	10.16	17.77	0.09	7.64
81.792	10.16	17.77	0.07	7.63
81.824	10.16	17.77	0.07	7.63
81.856	10.66	18.27	0.07	7.63
81.888	10.66	18.27	0.01	7.57
81.920	10.66	18.27	0.01	7.57
81.952	10.74	18.35	0.01	7.57
81.984	10.74	18.35	0.12	7.67
82.016	10.74	18.35	0.12	7.67
82.048	10.58	18.19	0.12	7.67
82.080	10.58	18.19	0.02	7.58
82.112	10.58	18.19	0.02	7.58
82.144	10.57	18.18	0.02	7.58
82.176	10.57	18.18	0.09	7.64
82.208	10.57	18.18	0.09	7.64
82.240	10.62	18.24	0.09	7.64
82.272	10.62	18.24	0.07	7.63
82.304	10.62	18.24	0.07	7.63
82.336	9.79	17.40	0.07	7.63
82.368	9.79	17.40	0.01	7.57
82.400	9.79	17.40	0.01	7.57
82.432	9.51	17.13	0.01	7.57
82.464	9.51	17.13	0.12	7.67
82.496	9.51	17.13	0.12	7.67
82.528	10.03	17.65	0.12	7.67
82.560	10.03	17.65	0.02	7.58
82.592	10.03	17.65	0.02	7.58
82.624	9.84	17.45	0.02	7.58
82.656	9.84	17.45	0.09	7.64
82.688	9.84	17.45	0.09	7.64
82.720	9.91	17.53	0.09	7.64
82.752	9.91	17.53	0.08	7.63
82.784	9.91	17.53	0.08	7.63
82.816	9.44	17.05	0.08	7.63
82.848	9.44	17.05	0.01	7.56
82.880	9.44	17.05	0.01	7.56
82.912	9.67	17.28	0.01	7.56
82.944	9.67	17.28	0.12	7.67
82.976	9.67	17.28	0.12	7.67
83.008	9.48	17.10	0.12	7.67
83.040	9.48	17.10	0.02	7.58
83.072	9.48	17.10	0.02	7.58
83.104	9.46	17.08	0.02	7.58
83.136	9.46	17.08	0.08	7.64
83.168	9.46	17.08	0.08	7.64
83.200	9.63	17.25	0.08	7.64
83.232	9.63	17.25	0.08	7.63
83.264	9.63	17.25	0.08	7.63
83.296	8.95	16.57	0.08	7.63
83.328	8.95	16.57	0.01	7.57
83.360	8.95	16.57	0.01	7.57
83.392	9.32	16.93	0.01	7.57
83.424	9.32	16.93	0.12	7.67
83.456	9.32	16.93	0.12	7.67
83.488	9.60	17.21	0.12	7.67
83.520	9.60	17.21	0.03	7.58
83.552	9.60	17.21	0.03	7.58
83.584	9.73	17.34	0.03	7.58
83.616	9.73	17.34	0.08	7.64
83.648	9.73	17.34	0.08	7.64
83.680	9.70	17.31	0.08	7.64
83.712	9.70	17.31	0.08	7.64
83.744	9.70	17.31	0.08	7.64
83.776	9.21	16.82	0.08	7.64
83.808	9.21	16.82	0.01	7.56
83.840	9.21	16.82	0.01	7.56
83.872	10.72	18.34	0.01	7.56
83.904	10.72	18.34	0.11	7.67
83.936	10.72	18.34	0.11	7.67
83.968	9.23	16.84	0.11	7.67
84.000	9.23	16.84	0.03	7.58
84.032	9.23	16.84	0.03	7.58
84.064	9.39	17.00	0.03	7.58
84.096	9.39	17.00	0.08	7.63
84.128	9.39	17.00	0.08	7.63
84.160	11.22	18.83	0.08	7.63
84.192	11.22	18.83	0.08	7.63
84.224	11.22	18.83	0.08	7.63
84.256	10.18	17.79	0.08	7.63
84.288	10.18	17.79	0.01	7.56
84.320	10.18	17.79	0.01	7.56
84.352	9.55	17.17	0.01	7.56
84.384	9.55	17.17	0.12	7.67
84.416	9.55	17.17	0.12	7.67
84.448	9.73	17.34	0.12	7.67
84.480	9.73	17.34	0.02	7.58
84.512	9.73	17.34	0.02	7.58
84.544	10.77	18.38	0.02	7.58
84.576	10.77	18.38	0.08	7.63
84.608	10.77	18.38	0.08	7.63
84.640	10.33	17.94	0.08	7.63
84.672	10.33	17.94	0.08	7.63
84.704	10.33	17.94	0.08	7.63
84.736	9.52	17.13	0.08	7.63
84.768	9.52	17.13	0.01	7.57
84.800	9.52	17.13	0.01	7.57
84.832	9.61	17.22	0.01	7.57
84.864	9.61	17.22	0.12	7.67
84.896	9.61	17.22	0.12	7.67
84.928	9.88	17.49	0.12	7.67
84.960	9.88	17.49	0.02	7.58
84.992	9.88	17.49	0.02	7.58
85.024	9.06	16.68	0.02	7.58
85.056	9.06	16.68	0.08	7.63
85.088	9.06	16.68	0.08	7.63
85.120	9.35	16.97	0.08	7.63
85.152	9.35	16.97	0.09	7.64
85.184	9.35	16.97	0.09	7.64
85.216	9.24	16.85	0.09	7.64
85.248	9.24	16.85	0.01	7.57
85.280	9.24	16.85	0.01	7.57
85.312	9.04	16.65	0.01	7.57
85.344	9.04	16.65	0.12	7.67
85.376	9.04	16.65	0.12	7.67
85.408	9.67	17.29	0.12	7.67
85.440	9.67	17.29	0.02	7.58
85.472	9.67	17.29	0.02	7.58
85.504	9.29	16.90	0.02	7.58
85.536	9.29	16.90	0.08	7.63
85.568	9.29	16.90	0.08	7.63
85.600	9.81	17.42	0.08	7.63
85.632	9.81	17.42	0.09	7.64
85.664	9.81	17.42	0.09	7.64
85.696	9.64	17.25	0.09	7.64
85.728	9.64	17.25	0.01	7.57
85.760	9.64	17.25	0.01	7.57
85.792	9.66	17.27	0.01	7.57
85.824	9.66	17.27	0.11	7.67
85.856	9.66	17.27	0.11	7.67
85.888	9.78	17.40	0.11	7.67
85.920	9.78	17.40	0.03	7.58
85.952	9.78	17.40	0.03	7.58
85.984	9.62	17.24	0.03	7.58
86.016	9.62	17.24	0.08	7.63
86.048	9.62	17.24	0.08	7.63
86.080	9.78	17.39	0.08	7.63
86.112	9.78	17.39	0.09	7.64
86.144	9.78	17.39	0.09	7.64
86.176	9.77	17.39	0.09	7.64
86.208	9.77	17.39	0.01	7.57
86.240	9.77	17.39	0.01	7.57
86.272	9.49	17.10	0.01	7.57
86.304	9.49	17.10	0.11	7.67
86.336	9.49	17.10	0.11	7.67
86.368	9.59	17.20	0.11	7.67
86.400	9.59	17.20	0.03	7.58
86.432	9.59	17.20	0.03	7.58
86.464	9.20	16.81	0.03	7.58
86.496	9.20	16.81	0.08	7.63
86.528	9.20	16.81	0.08	7.63
86.560	9.88	17.49	0.08	7.63
86.592	9.88	17.49	0.09	7.64
86.624	9.88	17.49	0.09	7.64
86.656	9.42	17.03	0.09	7.64
86.688	9.42	17.03	0.01	7.56
86.720	9.42	17.03	0.01	7.56
86.752	9.52	17.13	0.01	7.56
86.784	9.52	17.13	0.12	7.67
86.816	9.52	17.13	0.12	7.67
86.848	9.34	16.95	0.12	7.67
86.880	9.34	16.95	0.02	7.58
86.912	9.34	16.95	0.02	7.58
86.944	9.81	17.43	0.02	7.58
86.976	9.81	17.43	0.08	7.63
87.008	9.81	17.43	0.08	7.63
87.040	9.47	17.09	0.08	7.63
87.072	9.47	17.09	0.09	7.64
87.104	9.47	17.09	0.09	7.64
87.136	9.05	16.66	0.09	7.64
87.168	9.05	16.66	0.01	7.57
87.200	9.05	16.66	0.01	7.57
87.232	9.40	17.01	0.01	7.57
87.264	9.40	17.01	0.11	7.67
87.296	9.40	17.01	0.11	7.67
87.328	8.95	16.56	0.11	7.67
87.360	8.95	16.56	0.02	7.58
87.392	8.95	16.56	0.02	7.58
87.424	8.89	16.51	0.02	7.58
87.456	8.89	16.51	0.07	7.63
87.488	8.89	16.51	0.07	7.63
87.520	9.54	17.16	0.07	7.63
87.552	9.54	17.16	0.09	7.64
87.584	9.54	17.16	0.09	7.64
87.616	9.67	17.28	0.09	7.64
87.648	9.67	17.28	0.01	7.57
87.680	9.67	17.28	0.01	7.57
87.712	9.71	17.33	0.01	7.57
87.744	9.71	17.33	0.11	7.66
87.776	9.71	17.33	0.11	7.66
87.808	9.37	16.98	0.11	7.66
87.840	9.37	16.98	0.02	7.58
87.872	9.37	16.98	0.02	7.58
87.904	9.43	17.04	0.02	7.58
87.936	9.43	17.04	0.07	7.63
87.968	9.43	17.04	0.07	7.63
88.000	9.76	17.37	0.07	7.63
88.032	9.76	17.37	0.09	7.64
88.064	9.76	17.37	0.09	7.64
88.096	10.32	17.93	0.09	7.64
88.128	10.32	17.93	0.01	7.56
88.160	10.32	17.93	0.01	7.56
88.192	9.91	17.52	0.01	7.56
88.224	9.91	17.52	0.11	7.67
88.256	9.91	17.52	0.11	7.67
88.288	9.50	17.12	0.11	7.67
88.320	9.50	17.12	0.02	7.58
88.352	9.50	17.12	0.02	7.58
88.384	9.52	17.14	0.02	7.58
88.416	9.52	17.14	0.07	7.63
88.448	9.52	17.14	0.07	7.63
88.480	8.97	16.58	0.07	7.63
88.512	8.97	16.58	0.09	7.64
88.544	8.97	16.58	0.09	7.64
88.576	9.51	17.12	0.09	7.64
88.608	9.51	17.12	0.01	7.57
88.640	9.51	17.12	0.01	7.57
88.672	9.70	17.32	0.01	7.57
88.704	9.70	17.32	0.12	7.67
88.736	9.70	17.32	0.12	7.67
88.768	9.60	17.22	0.12	7.67
88.800	9.60	17.22	0.02	7.58
88.832	9.60	17.22	0.02	7.58
88.864	8.93	16.54	0.02	7.58
88.896	8.93	16.54	0.07	7.63
88.928	8.93	16.54	0.07	7.63
88.960	9.83	17.45	0.07	7.63
88.992	9.83	17.45	0.09	7.64
89.024	9.83	17.45	0.09	7.64
89.056	9.96	17.58	0.09	7.64
89.088	9.96	17.58	0.01	7.57
89.120	9.96	17.58	0.01	7.57
89.152	9.45	17.07	0.01	7.57
89.184	9.45	17.07	0.12	7.67
89.216	9.45	17.07	0.12	7.67
89.248	9.42	17.04	0.12	7.67
89.280	9.42	17.04	0.03	7.58
89.312	9.42	17.04	0.03	7.58
89.344	9.37	16.99	0.03	7.58
89.376	9.37	16.99	0.07	7.63
89.408	9.37	16.99	0.07	7.63
89.440	9.72	17.34	0.07	7.63
89.472	9.72	17.34	0.09	7.64
89.504	9.72	17.34	0.09	7.64
89.536	9.84	17.45	0.09	7.64
89.568	9.84	17.45	0.01	7.56
89.600	9.84	17.45	0.01	7.56
89.632	9.24	16.85	0.01	7.56
89.664	9.24	16.85	0.11	7.67
89.696	9.24	16.85	0.11	7.67
89.728	9.64	17.26	0.11	7.67
89.760	9.64	17.26	0.02	7.58
89.792	9.64	17.26	0.02	7.58
89.824	8.52	16.13	0.02	7.58
89.856	8.52	16.13	0.08	7.63
89.888	8.52	16.13	0.08	7.63
89.920	9.21	16.83	0.08	7.63
89.952	9.21	16.83	0.09	7.64
89.984	9.21	16.83	0.09	7.64
90.016	8.87	16.49	0.09	7.64
90.048	8.87	16.49	0.01	7.56
90.080	8.87	16.49	0.01	7.56
90.112	9.13	16.75	0.01	7.56
90.144	9.13	16.75	0.12	7.67
90.176	9.13	16.75	0.12	7.67
90.208	9.12	16.73	0.12	7.67
90.240	9.12	16.73	0.02	7.58
90.272	9.12	16.73	0.02	7.58
90.304	8.84	16.45	0.02	7.58
90.336	8.84	16.45	0.08	7.63
90.368	8.84	16.45	0.08	7.63
90.400	8.72	16.34	0.08	7.63
90.432	8.72	16.34	0.09	7.64
90.464	8.72	16.34	0.09	7.64
90.496	9.22	16.83	0.09	7.64
90.528	9.22	16.83	0.01	7.57
90.560	9.22	16.83	0.01	7.57
90.592	9.48	17.09	0.01	7.57
90.624	9.48	17.09	0.11	7.67
90.656	9.48	17.09	0.11	7.67
90.688	8.76	16.37	0.11	7.67
90.720	8.76	16.37	0.03	7.58
90.752	8.76	16.37	0.03	7.58
90.784	8.96	16.57	0.03	7.58
90.816	8.96	16.57	0.08	7.63
90.848	8.96	16.57	0.08	7.63
90.880	9.31	16.92	0.08	7.63
90.912	9.31	16.92	0.09	7.64
90.944	9.31	16.92	0.09	7.64
90.976	9.18	16.79	0.09	7.64
91.008	9.18	16.79	0.01	7.57
91.040	9.18	16.79	0.01	7.57
91.072	9.04	16.66	0.01	7.57
91.104	9.04	16.66	0.11	7.67
91.136	9.04	16.66	0.11	7.67
91.168	9.11	16.73	0.11	7.67
91.200	9.11	16.73	0.03	7.58
91.232	9.11	16.73	0.03	7.58
91.264	9.16	16.78	0.03	7.58
91.296	9.16	16.78	0.08	7.63
91.328	9.16	16.78	0.08	7.63
91.360	9.63	17.24	0.08	7.63
91.392	9.63	17.24	0.09	7.64
91.424	9.63	17.24	0.09	7.64
91.456	9.12	16.74	0.09	7.64
91.488	9.12	16.74	0.01	7.56
91.520	9.12	16.74	0.01	7.56
91.552	9.77	17.39	0.01	7.56
91.584	9.77	17.39	0.11	7.67
91.616	9.77	17.39	0.11	7.67
91.648	10.32	17.94	0.11	7.67
91.680	10.32	17.94	0.02	7.58
91.712	10.32	17.94	0.02	7.58
91.744	9.31	16.93	0.02	7.58
91.776	9.31	16.93	0.08	7.63
91.808	9.31	16.93	0.08	7.63
91.840	9.35	16.96	0.08	7.63
91.872	9.35	16.96	0.09	7.64
91.904	9.35	16.96	0.09	7.64
91.936	9.60	17.22	0.09	7.64
91.968	9.60	17.22	0.01	7.56
92.000	9.60	17.22	0.01	7.56
92.032	9.07	16.69	0.01	7.56
92.064	9.07	16.69	0.11	7.67
92.096	9.07	16.69	0.11	7.67
92.128	9.20	16.81	0.11	7.67
92.160	9.20	16.81	0.02	7.58
92.192	9.20	16.81	0.02	7.58
92.224	9.03	16.64	0.02	7.58
92.256	9.03	16.64	0.07	7.63
92.288	9.03	16.64	0.07	7.63
92.320	8.99	16.60	0.07	7.63
92.352	8.99	16.60	0.09	7.64
92.384	8.99	16.60	0.09	7.64
92.416	8.95	16.57	0.09	7.64
92.448	8.95	16.57	0.01	7.56
92.480	8.95	16.57	0.01	7.56
92.512	9.03	16.65	0.01	7.56
92.544	9.03	16.65	0.11	7.66
92.576	9.03	16.65	0.11	7.66
92.608	9.42	17.03	0.11	7.66
92.640	9.42	17.03	0.03	7.58
92.672	9.42	17.03	0.03	7.58
92.704	9.25	16.86	0.03	7.58
92.736	9.25	16.86	0.08	7.63
92.768	9.25	16.86	0.08	7.63
92.800	9.07	16.68	0.08	7.63
92.832	9.07	16.68	0.09	7.64
92.864	9.07	16.68	0.09	7.64
92.896	9.59	17.20	0.09	7.64
92.928	9.59	17.20	0.01	7.56
92.960	9.59	17.20	0.01	7.56
92.992	10.07	17.68	0.01	7.56
93.024	10.07	17.68	0.11	7.67
93.056	10.07	17.68	0.11	7.67
93.088	9.53	17.15	0.11	7.67
93.120	9.53	17.15	0.02	7.58
93.152	9.53	17.15	0.02	7.58
93.184	9.12	16.73	0.02	7.58
93.216	9.12	16.73	0.08	7.63
93.248	9.12	16.73	0.08	7.63
93.280	8.90	16.51	0.08	7.63
93.312	8.90	16.51	0.09	7.64
93.344	8.90	16.51	0.09	7.64
93.376	8.48	16.09	0.09	7.64
93.408	8.48	16.09	0.01	7.56
93.440	8.48	16.09	0.01	7.56
93.472	8.79	16.40	0.01	7.56
93.504	8.79	16.40	0.11	7.67
93.536	8.79	16.40	0.11	7.67
93.568	9.34	16.95	0.11	7.67
93.600	9.34	16.95	0.02	7.58
93.632	9.34	16.95	0.02	7.58
93.664	9.41	17.03	0.02	7.58
93.696	9.41	17.03	0.07	7.63
93.728	9.41	17.03	0.07	7.63
93.760	9.14	16.76	0.07	7.63
93.792	9.14	16.76	0.09	7.64
93.824	9.14	16.76	0.09	7.64
93.856	8.96	16.57	0.09	7.64
93.888	8.96	16.57	0.01	7.56
93.920	8.96	16.57	0.01	7.56
93.952	9.40	17.01	0.01	7.56
93.984	9.40	17.01	0.11	7.67
94.016	9.40	17.01	0.11	7.67
94.048	9.26	16.87	0.11	7.67
94.080	9.26	16.87	0.02	7.58
94.112	9.26	16.87	0.02	7.58
94.144	9.26	16.87	0.02	7.58
94.176	9.26	16.87	0.08	7.63
94.208	9.26	16.87	0.08	7.63
94.240	9.34	16.95	0.08	7.63
94.272	9.34	16.95	0.09	7.64
94.304	9.34	16.95	0.09	7.64
94.336	9.05	16.67	0.09	7.64
94.368	9.05	16.67	0.01	7.56
94.400	9.05	16.67	0.01	7.56
94.432	8.52	16.13	0.01	7.56
94.464	8.52	16.13	0.11	7.67
94.496	8.52	16.13	0.11	7.67
94.528	9.18	16.79	0.11	7.67
94.560	9.18	16.79	0.02	7.58
94.592	9.18	16.79	0.02	7.58
94.624	9.10	16.71	0.02	7.58
94.656	9.10	16.71	0.08	7.63
94.688	9.10	16.71	0.08	7.63
94.720	9.46	17.07	0.08	7.63
94.752	9.46	17.07	0.09	7.64
94.784	9.46	17.07	0.09	7.64
94.816	9.38	17.00	0.09	7.64
94.848	9.38	17.00	0.01	7.56
94.880	9.38	17.00	0.01	7.56
94.912	9.55	17.16	0.01	7.56
94.944	9.55	17.16	0.11	7.67
94.976	9.55	17.16	0.11	7.67
95.008	9.51	17.13	0.11	7.67
95.040	9.51	17.13	0.02	7.58
95.072	9.51	17.13	0.02	7.58
95.104	9.01	16.62	0.02	7.58
95.136	9.01	16.62	0.08	7.63
95.168	9.01	16.62	0.08	7.63
95.200	9.25	16.86	0.08	7.63
95.232	9.25	16.86	0.09	7.64
95.264	9.25	16.86	0.09	7.64
95.296	9.29	16.90	0.09	7.64
95.328	9.29	16.90	0.01	7.56
95.360	9.29	16.90	0.01	7.56
95.392	9.59	17.21	0.01	7.56
95.424	9.59	17.21	0.11	7.67
95.456	9.59	17.21	0.11	7.67
95.488	9.72	17.33	0.11	7.67
95.520	9.72	17.33	0.02	7.58
95.552	9.72	17.33	0.02	7.58
95.584	9.51	17.13	0.02	7.58
95.616	9.51	17.13	0.08	7.63
95.648	9.51	17.13	0.08	7.63
95.680	9.64	17.25	0.08	7.63
95.712	9.64	17.25	0.09	7.64
95.744	9.64	17.25	0.09	7.64
95.776	9.50	17.11	0.09	7.64
95.808	9.50	17.11	0.01	7.56
95.840	9.50	17.11	0.01	7.56
95.872	9.80	17.41	0.01	7.56
95.904	9.80	17.41	0.12	7.67
95.936	9.80	17.41	0.12	7.67
95.968	9.97	17.58	0.12	7.67
96.000	9.97	17.58	0.02	7.58
96.032	9.97	17.58	0.02	7.58
96.064	9.65	17.27	0.02	7.58
96.096	9.65	17.27	0.08	7.63
96.128	9.65	17.27	0.08	7.63
96.160	9.81	17.43	0.08	7.63
96.192	9.81	17.43	0.08	7.64
96.224	9.81	17.43	0.08	7.64
96.256	9.37	16.99	0.08	7.64
96.288	9.37	16.99	0.01	7.56
96.320	9.37	16.99	0.01	7.56
96.352	9.26	16.87	0.01	7.56
96.384	9.26	16.87	0.11	7.67
96.416	9.26	16.87	0.11	7.67
96.448	9.67	17.29	0.11	7.67
96.480	9.67	17.29	0.02	7.58
96.512	9.67	17.29	0.02	7.58
96.544	9.90	17.51	0.02	7.58
96.576	9.90	17.51	0.07	7.63
96.608	9.90	17.51	0.07	7.63
96.640	10.04	17.66	0.07	7.63
96.672	10.04	17.66	0.09	7.64
96.704	10.04	17.66	0.09	7.64
96.736	9.53	17.14	0.09	7.64
96.768	9.53	17.14	0.01	7.57
96.800	9.53	17.14	0.01	7.57
96.832	9.86	17.48	0.01	7.57
96.864	9.86	17.48	0.11	7.67
96.896	9.86	17.48	0.11	7.67
96.928	9.27	16.88	0.11	7.67
96.960	9.27	16.88	0.02	7.58
96.992	9.27	16.88	0.02	7.58
97.024	9.28	16.89	0.02	7.58
97.056	9.28	16.89	0.08	7.63
97.088	9.28	16.89	0.08	7.63
97.120	9.88	17.49	0.08	7.63
97.152	9.88	17.49	0.08	7.64
97.184	9.88	17.49	0.08	7.64
97.216	10.04	17.65	0.08	7.64
97.248	10.04	17.65	0.01	7.57
97.280	10.04	17.65	0.01	7.57
97.312	9.22	16.84	0.01	7.57
97.344	9.22	16.84	0.11	7.67
97.376	9.22	16.84	0.11	7.67
97.408	9.40	17.01	0.11	7.67
97.440	9.40	17.01	0.02	7.58
97.472	9.40	17.01	0.02	7.58
97.504	9.44	17.05	0.02	7.58
97.536	9.44	17.05	0.08	7.63
97.568	9.44	17.05	0.08	7.63
97.600	9.72	17.34	0.08	7.63
97.632	9.72	17.34	0.09	7.64
97.664	9.72	17.34	0.09	7.64
97.696	9.46	17.08	0.09	7.64
97.728	9.46	17.08	0.01	7.57
97.760	9.46	17.08	0.01	7.57
97.792	9.31	16.93	0.01	7.57
97.824	9.31	16.93	0.11	7.67
97.856	9.31	16.93	0.11	7.67
97.888	10.01	17.63	0.11	7.67
97.920	10.01	17.63	0.02	7.58
97.952	10.01	17.63	0.02	7.58
97.984	9.39	17.00	0.02	7.58
98.016	9.39	17.00	0.08	7.63
98.048	9.39	17.00	0.08	7.63
98.080	10.17	17.79	0.08	7.63
98.112	10.17	17.79	0.09	7.64
98.144	10.17	17.79	0.09	7.64
98.176	9.32	16.93	0.09	7.64
98.208	9.32	16.93	0.01	7.56
98.240	9.32	16.93	0.01	7.56
98.272	9.33	16.95	0.01	7.56
98.304	9.33	16.95	0.11	7.67
98.336	9.33	16.95	0.11	7.67
98.368	10.34	17.95	0.11	7.67
98.400	10.34	17.95	0.02	7.58
98.432	10.34	17.95	0.02	7.58
98.464	9.25	16.87	0.02	7.58
98.496	9.25	16.87	0.08	7.63
98.528	9.25	16.87	0.08	7.63
98.560	9.61	17.23	0.08	7.63
98.592	9.61	17.23	0.09	7.64
98.624	9.61	17.23	0.09	7.64
98.656	9.35	16.96	0.09	7.64
98.688	9.35	16.96	0.01	7.56
98.720	9.35	16.96	0.01	7.56
98.752	9.29	16.90	0.01	7.56
98.784	9.29	16.90	0.11	7.67
98.816	9.29	16.90	0.11	7.67
98.848	9.62	17.24	0.11	7.67
98.880	9.62	17.24	0.03	7.58
98.912	9.62	17.24	0.03	7.58
98.944	9.55	17.17	0.03	7.58
98.976	9.55	17.17	0.08	7.63
99.008	9.55	17.17	0.08	7.63
99.040	9.77	17.38	0.08	7.63
99.072	9.77	17.38	0.09	7.64
99.104	9.77	17.38	0.09	7.64
99.136	9.54	17.16	0.09	7.64
99.168	9.54	17.16	0.01	7.57
99.200	9.54	17.16	0.01	7.57
99.232	9.26	16.87	0.01	7.57
99.264	9.26	16.87	0.12	7.67
99.296	9.26	16.87	0.12	7.67
99.328	9.58	17.20	0.12	7.67
99.360	9.58	17.20	0.02	7.58
99.392	9.58	17.20	0.02	7.58
99.424	9.70	17.31	0.02	7.58
99.456	9.70	17.31	0.08	7.63
99.488	9.70	17.31	0.08	7.63
99.520	9.84	17.45	0.08	7.63
99.552	9.84	17.45	0.09	7.64
99.584	9.84	17.45	0.09	7.64
99.616	9.58	17.19	0.09	7.64
99.648	9.58	17.19	0.01	7.56
99.680	9.58	17.19	0.01	7.56
99.712	9.59	17.21	0.01	7.56
99.744	9.59	17.21	0.12	7.67
99.776	9.59	17.21	0.12	7.67
99.808	9.63	17.24	0.12	7.67
99.840	9.63	17.24	0.03	7.58
99.872	9.63	17.24	0.03	7.58
99.904	9.48	17.09	0.03	7.58
99.936	9.48	17.09	0.08	7.63
99.968	9.48	17.09	0.08	7.63
100.000	9.56	17.18	0.08	7.63
100.032	9.56	17.18	0.09	7.64
100.064	9.56	17.18	0.09	7.64
100.096	9.47	17.09	0.09	7.64
100.128	9.47	17.09	0.01	7.57
100.160	9.47	17.09	0.01	7.57
100.192	9.50	17.11	0.01	7.57
100.224	9.50	17.11	0.12	7.67
100.256	9.50	17.11	0.12	7.67
100.288	9.13	16.74	0.12	7.67
100.320	9.13	16.74	0.02	7.58
100.352	9.13	16.74	0.02	7.58
100.384	9.01	16.62	0.02	7.58
100.416	9.01	16.62	0.08	7.63
100.448	9.01	16.62	0.08	7.63
100.480	9.58	17.19	0.08	7.63
100.512	9.58	17.19	0.09	7.64
100.544	9.58	17.19	0.09	7.64
100.576	9.65	17.26	0.09	7.64
100.608	9.65	17.26	0.01	7.57
100.640	9.65	17.26	0.01	7.57
100.672	9.80	17.41	0.01	7.57
100.704	9.80	17.41	0.12	7.67
100.736	9.80	17.41	0.12	7.67
100.768	10.31	17.92	0.12	7.67
100.800	10.31	17.92	0.02	7.58
100.832	10.31	17.92	0.02	7.58
100.864	9.65	17.26	0.02	7.58
100.896	9.65	17.26	0.08	7.63
100.928	9.65	17.26	0.08	7.63
100.960	9.72	17.34	0.08	7.63
100.992	9.72	17.34	0.09	7.64
101.024	9.72	17.34	0.09	7.64
101.056	9.71	17.32	0.09	7.64
101.088	9.71	17.32	0.01	7.57
101.120	9.71	17.32	0.01	7.57
101.152	9.59	17.20	0.01	7.57
101.184	9.59	17.20	0.11	7.67
101.216	9.59	17.20	0.11	7.67
101.248	9.53	17.15	0.11	7.67
101.280	9.53	17.15	0.02	7.58
101.312	9.53	17.15	0.02	7.58
101.344	9.60	17.21	0.02	7.58
101.376	9.60	17.21	0.08	7.63
101.408	9.60	17.21	0.08	7.63
101.440	9.72	17.33	0.08	7.63
101.472	9.72	17.33	0.09	7.64
101.504	9.72	17.33	0.09	7.64
101.536	9.68	17.30	0.09	7.64
101.568	9.68	17.30	0.01	7.56
101.600	9.68	17.30	0.01	7.56
101.632	10.85	18.46	0.01	7.56
101.664	10.85	18.46	0.12	7.67
101.696	10.85	18.46	0.12	7.67
101.728	9.66	17.28	0.12	7.67
101.760	9.66	17.28	0.03	7.58
101.792	9.66	17.28	0.03	7.58
101.824	11.40	19.01	0.03	7.58
101.856	11.40	19.01	0.07	7.62
101.888	11.40	19.01	0.07	7.62
101.920	11.58	19.19	0.07	7.62
101.952	11.58	19.19	0.09	7.64
101.984	11.58	19.19	0.09	7.64
102.016	10.54	18.15	0.09	7.64
102.048	10.54	18.15	0.01	7.57
102.080	10.54	18.15	0.01	7.57
102.112	10.52	18.13	0.01	7.57
102.144	10.52	18.13	0.11	7.67
102.176	10.52	18.13	0.11	7.67
102.208	10.26	17.87	0.11	7.67
102.240	10.26	17.87	0.02	7.58
102.272	10.26	17.87	0.02	7.58
102.304	9.26	16.87	0.02	7.58
102.336	9.26	16.87	0.08	7.63
102.368	9.26	16.87	0.08	7.63
102.400	9.91	17.53	0.08	7.63
102.432	9.91	17.53	0.09	7.65
102.464	9.91	17.53	0.09	7.65
102.496	9.19	16.81	0.09	7.65
102.528	9.19	16.81	0.01	7.57
102.560	9.19	16.81	0.01	7.57
102.592	10.08	17.70	0.01	7.57
102.624	10.08	17.70	0.11	7.67
102.656	10.08	17.70	0.11	7.67
102.688	9.31	16.92	0.11	7.67
102.720	9.31	16.92	0.02	7.58
102.752	9.31	16.92	0.02	7.58
102.784	9.26	16.87	0.02	7.58
102.816	9.26	16.87	0.07	7.63
102.848	9.26	16.87	0.07	7.63
102.880	9.72	17.33	0.07	7.63
102.912	9.72	17.33	0.09	7.65
102.944	9.72	17.33	0.09	7.65
102.976	9.17	16.78	0.09	7.65
103.008	9.17	16.78	0.01	7.56
103.040	9.17	16.78	0.01	7.56
103.072	9.67	17.28	0.01	7.56
103.104	9.67	17.28	0.11	7.67
103.136	9.67	17.28	0.11	7.67
103.168	10.13	17.74	0.11	7.67
103.200	10.13	17.74	0.02	7.58
103.232	10.13	17.74	0.02	7.58
103.264	11.38	18.99	0.02	7.58
103.296	11.38	18.99	0.07	7.63
103.328	11.38	18.99	0.07	7.63
103.360	11.09	18.70	0.07	7.63
103.392	11.09	18.70	0.09	7.64
103.424	11.09	18.70	0.09	7.64
103.456	10.68	18.29	0.09	7.64
103.488	10.68	18.29	0.01	7.56
103.520	10.68	18.29	0.01	7.56
103.552	10.81	18.42	0.01	7.56
103.584	10.81	18.42	0.11	7.67
103.616	10.81	18.42	0.11	7.67
103.648	9.79	17.40	0.11	7.67
103.680	9.79	17.40	0.03	7.58
103.712	9.79	17.40	0.03	7.58
103.744	10.32	17.94	0.03	7.58
103.776	10.32	17.94	0.07	7.63
103.808	10.32	17.94	0.07	7.63
103.840	9.92	17.54	0.07	7.63
103.872	9.92	17.54	0.09	7.65
103.904	9.92	17.54	0.09	7.65
103.936	9.39	17.00	0.09	7.65
103.968	9.39	17.00	0.01	7.56
104.000	9.39	17.00	0.01	7.56
104.032	9.59	17.21	0.01	7.56
104.064	9.59	17.21	0.11	7.67
104.096	9.59	17.21	0.11	7.67
104.128	9.64	17.25	0.11	7.67
104.160	9.64	17.25	0.02	7.58
104.192	9.64	17.25	0.02	7.58
104.224	10.20	17.82	0.02	7.58
104.256	10.20	17.82	0.07	7.63
104.288	10.20	17.82	0.07	7.63
104.320	10.32	17.94	0.07	7.63
104.352	10.32	17.94	0.09	7.65
104.384	10.32	17.94	0.09	7.65
104.416	9.85	17.46	0.09	7.65
104.448	9.85	17.46	0.01	7.56
104.480	9.85	17.46	0.01	7.56
104.512	9.44	17.05	0.01	7.56
104.544	9.44	17.05	0.11	7.67
104.576	9.44	17.05	0.11	7.67
104.608	10.22	17.84	0.11	7.67
104.640	10.22	17.84	0.02	7.58
104.672	10.22	17.84	0.02	7.58
104.704	10.47	18.09	0.02	7.58
104.736	10.47	18.09	0.07	7.63
104.768	10.47	18.09	0.07	7.63
104.800	10.49	18.11	0.07	7.63
104.832	10.49	18.11	0.10	7.65
104.864	10.49	18.11	0.10	7.65
104.896	9.82	17.44	0.10	7.65
104.928	9.82	17.44	0.01	7.56
104.960	9.82	17.44	0.01	7.56
104.992	10.29	17.90	0.01	7.56
105.024	10.29	17.90	0.11	7.67
105.056	10.29	17.90	0.11	7.67
105.088	10.05	17.67	0.11	7.67
105.120	10.05	17.67	0.03	7.58
105.152	10.05	17.67	0.03	7.58
105.184	9.35	16.97	0.03	7.58
105.216	9.35	16.97	0.07	7.62
105.248	9.35	16.97	0.07	7.62
105.280	9.27	16.88	0.07	7.62
105.312	9.27	16.88	0.10	7.65
105.344	9.27	16.88	0.10	7.65
105.376	9.51	17.13	0.10	7.65
105.408	9.51	17.13	0.01	7.56
105.440	9.51	17.13	0.01	7.56
105.472	9.39	17.01	0.01	7.56
105.504	9.39	17.01	0.11	7.67
105.536	9.39	17.01	0.11	7.67
105.568	9.68	17.29	0.11	7.67
105.600	9.68	17.29	0.03	7.58
105.632	9.68	17.29	0.03	7.58
105.664	9.46	17.08	0.03	7.58
105.696	9.46	17.08	0.07	7.62
105.728	9.46	17.08	0.07	7.62
105.760	9.63	17.25	0.07	7.62
105.792	9.63	17.25	0.10	7.65
105.824	9.63	17.25	0.10	7.65
105.856	9.45	17.06	0.10	7.65
105.888	9.45	17.06	0.01	7.56
105.920	9.45	17.06	0.01	7.56
105.952	9.72	17.33	0.01	7.56
105.984	9.72	17.33	0.11	7.66
106.016	9.72	17.33	0.11	7.66
106.048	9.62	17.23	0.11	7.66
106.080	9.62	17.23	0.02	7.58
106.112	9.62	17.23	0.02	7.58
106.144	9.57	17.19	0.02	7.58
106.176	9.57	17.19	0.07	7.62
106.208	9.57	17.19	0.07	7.62
106.240	9.88	17.49	0.07	7.62
106.272	9.88	17.49	0.10	7.65
106.304	9.88	17.49	0.10	7.65
106.336	9.75	17.36	0.10	7.65
106.368	9.75	17.36	0.01	7.56
106.400	9.75	17.36	0.01	7.56
106.432	9.65	17.26	0.01	7.56
106.464	9.65	17.26	0.11	7.66
106.496	9.65	17.26	0.11	7.66
106.528	9.65	17.26	0.11	7.66
106.560	9.65	17.26	0.03	7.58
106.592	9.65	17.26	0.03	7.58
106.624	9.52	17.14	0.03	7.58
106.656	9.52	17.14	0.07	7.62
106.688	9.52	17.14	0.07	7.62
106.720	9.57	17.19	0.07	7.62
106.752	9.57	17.19	0.10	7.65
106.784	9.57	17.19	0.10	7.65
106.816	9.51	17.12	0.10	7.65
106.848	9.51	17.12	0.01	7.56
106.880	9.51	17.12	0.01	7.56
106.912	9.58	17.19	0.01	7.56
106.944	9.58	17.19	0.11	7.66
106.976	9.58	17.19	0.11	7.66
107.008	9.78	17.39	0.11	7.66
107.040	9.78	17.39	0.03	7.58
107.072	9.78	17.39	0.03	7.58
107.104	9.67	17.28	0.03	7.58
107.136	9.67	17.28	0.06	7.61
107.168	9.67	17.28	0.06	7.61
107.200	7.21	14.82	0.06	7.61
107.232	7.21	14.82	0.10	7.66
107.264	7.21	14.82	0.10	7.66
107.296	0.21	7.83	0.10	7.66
107.328	0.21	7.83	0.01	7.56
107.360	0.21	7.83	0.01	7.56
107.392	-0.64	6.98	0.01	7.56
107.424	-0.64	6.98	0.10	7.65
107.456	-0.64	6.98	0.10	7.65
107.488	0.12	7.73	0.10	7.65
107.520	0.12	7.73	0.02	7.58
107.552	0.12	7.73	0.02	7.58
107.584	0.59	8.20	0.02	7.58
107.616	0.59	8.20	0.06	7.61
107.648	0.59	8.20	0.06	7.61
107.680	0.61	8.23	0.06	7.61
107.712	0.61	8.23	0.10	7.65
107.744	0.61	8.23	0.10	7.65
107.776	-0.05	7.56	0.10	7.65
107.808	-0.05	7.56	0.01	7.56
107.840	-0.05	7.56	0.01	7.56
107.872	0.07	7.68	0.01	7.56
107.904	0.07	7.68	0.10	7.65
107.936	0.07	7.68	0.10	7.65
107.968	0.18	7.79	0.10	7.65
108.000	0.18	7.79	0.03	7.58
108.032	0.18	7.79	0.03	7.58
108.064	0.19	7.81	0.03	7.58
108.096	0.19	7.81	0.06	7.61
108.128	0.19	7.81	0.06	7.61
108.160	0.28	7.89	0.06	7.61
108.192	0.28	7.89	0.10	7.65
108.224	0.28	7.89	0.10	7.65
108.256	0.02	7.63	0.10	7.65
108.288	0.02	7.63	0.01	7.56
108.320	0.02	7.63	0.01	7.56
108.352	0.16	7.77	0.01	7.56
108.384	0.16	7.77	0.10	7.65
108.416	0.16	7.77	0.10	7.65
108.448	0.15	7.76	0.10	7.65
108.480	0.15	7.76	0.03	7.58
108.512	0.15	7.76	0.03	7.58
108.544	0.09	7.70	0.03	7.58
108.576	0.09	7.70	0.05	7.61
108.608	0.09	7.70	0.05	7.61
108.640	0.22	7.84	0.05	7.61
108.672	0.22	7.84	0.10	7.65
108.704	0.22	7.84	0.10	7.65
108.736	0.02	7.63	0.10	7.65
108.768	0.02	7.63	0.01	7.56
108.800	0.02	7.63	0.01	7.56
108.832	0.16	7.78	0.01	7.56
108.864	0.16	7.78	0.10	7.65
108.896	0.16	7.78	0.10	7.65
108.928	0.13	7.74	0.10	7.65
108.960	0.13	7.74	0.02	7.58
108.992	0.13	7.74	0.02	7.58
109.024	0.05	7.66	0.02	7.58
109.056	0.05	7.66	0.05	7.61
109.088	0.05	7.66	0.05	7.61
109.120	0.21	7.83	0.05	7.61
109.152	0.21	7.83	0.10	7.66
109.184	0.21	7.83	0.10	7.66
109.216	0.02	7.64	0.10	7.66
109.248	0.02	7.64	0.01	7.56
109.280	0.02	7.64	0.01	7.56
109.312	0.15	7.77	0.01	7.56
109.344	0.15	7.77	0.10	7.65
109.376	0.15	7.77	0.10	7.65
109.408	0.12	7.73	0.10	7.65
109.440	0.12	7.73	0.02	7.58
109.472	0.12	7.73	0.02	7.58
109.504	0.05	7.66	0.02	7.58
109.536	0.05	7.66	0.05	7.60
109.568	0.05	7.66	0.05	7.60
109.600	0.21	7.83	0.05	7.60
109.632	0.21	7.83	0.10	7.66
109.664	0.21	7.83	0.10	7.66
109.696	0.01	7.63	0.10	7.66
109.728	0.01	7.63	0.01	7.56
109.760	0.01	7.63	0.01	7.56
109.792	0.14	7.75	0.01	7.56
109.824	0.14	7.75	0.10	7.65
109.856	0.14	7.75	0.10	7.65
109.888	0.11	7.73	0.10	7.65
109.920	0.11	7.73	0.02	7.58
109.952	0.11	7.73	0.02	7.58
109.984	0.04	7.66	0.02	7.58
110.016	0.04	7.66	0.05	7.60
110.048	0.04	7.66	0.05	7.60
110.080	0.21	7.83	0.05	7.60
110.112	0.21	7.83	0.10	7.66
110.144	0.21	7.83	0.10	7.66
110.176	0.02	7.63	0.10	7.66
110.208	0.02	7.63	0.01	7.56
110.240	0.02	7.63	0.01	7.56
110.272	0.13	7.75	0.01	7.56
110.304	0.13	7.75	0.10	7.65
110.336	0.13	7.75	0.10	7.65
110.368	0.12	7.73	0.10	7.65
110.400	0.12	7.73	0.03	7.58
110.432	0.12	7.73	0.03	7.58
110.464	0.03	7.64	0.03	7.58
110.496	0.03	7.64	0.05	7.60
110.528	0.03	7.64	0.05	7.60
110.560	0.21	7.82	0.05	7.60
110.592	0.21	7.82	0.10	7.65
110.624	0.21	7.82	0.10	7.65
110.656	0.02	7.64	0.10	7.65
110.688	0.02	7.64	0.01	7.56
110.720	0.02	7.64	0.01	7.56
110.752	0.13	7.74	0.01	7.56
110.784	0.13	7.74	0.10	7.65
110.816	0.13	7.74	0.10	7.65
110.848	0.12	7.74	0.10	7.65
110.880	0.12	7.74	0.03	7.58
110.912	0.12	7.74	0.03	7.58
110.944	0.04	7.65	0.03	7.58
110.976	0.04	7.65	0.04	7.59
111.008	0.04	7.65	0.04	7.59
111.040	0.21	7.83	0.04	7.59
111.072	0.21	7.83	0.10	7.65
111.104	0.21	7.83	0.10	7.65
111.136	0.01	7.62	0.10	7.65
111.168	0.01	7.62	0.01	7.56
111.200	0.01	7.62	0.01	7.56
111.232	0.10	7.72	0.01	7.56
111.264	0.10	7.72	0.10	7.65
111.296	0.10	7.72	0.10	7.65
111.328	0.10	7.71	0.10	7.65
111.360	0.10	7.71	0.03	7.58
111.392	0.10	7.71	0.03	7.58
111.424	0.00	7.62	0.03	7.58
111.456	0.00	7.62	0.04	7.59
111.488	0.00	7.62	0.04	7.59
