Tempo(s)	P0(KPa)	P0+Coluna(KPa)	P1(KPa)	P1+Coluna(KPa)
0.067	-0.01	9.62	0.08	7.71
0.159	-0.01	9.62	-0.08	7.54
0.247	-0.01	9.62	0.05	7.68
0.337	-0.01	9.62	-0.02	7.61
0.484	-0.01	9.62	0.09	7.71
0.577	-0.01	9.62	-0.08	7.55
0.666	-0.01	9.62	0.09	7.72
0.756	-0.01	9.62	-0.06	7.57
0.846	-0.01	9.62	0.03	7.66
0.937	-0.01	9.62	0.01	7.64
1.033	-0.01	9.62	-0.08	7.55
1.126	-0.01	9.62	-0.08	7.55
1.220	-0.01	9.62	0.08	7.71
1.317	-0.02	9.61	0.08	7.71
1.419	-0.02	9.61	0.02	7.65
1.516	-0.03	9.60	0.08	7.71
1.608	-0.01	9.62	-0.08	7.55
1.726	-0.04	9.59	-0.08	7.55
1.817	-0.02	9.61	0.08	7.71
1.907	-0.03	9.60	-0.07	7.56
1.997	-0.02	9.61	0.04	7.66
2.087	-0.02	9.61	-0.00	7.63
2.176	-0.02	9.61	-0.07	7.55
2.268	-0.02	9.61	0.09	7.72
2.357	-0.02	9.61	-0.07	7.56
2.447	-0.02	9.61	0.03	7.66
2.536	-0.02	9.60	0.00	7.63
2.626	-0.02	9.61	-0.08	7.55
2.717	-0.02	9.61	0.09	7.71
2.806	-0.02	9.60	-0.05	7.58
2.896	-0.02	9.61	0.03	7.66
2.986	-0.02	9.60	0.03	7.65
3.076	-0.02	9.60	-0.09	7.54
3.166	-0.02	9.61	0.08	7.71
3.256	-0.02	9.60	-0.05	7.58
3.352	-0.03	9.60	0.05	7.68
3.485	-0.04	9.59	0.07	7.69
3.576	-0.02	9.60	-0.09	7.54
3.666	-0.02	9.61	0.09	7.71
3.756	-0.02	9.60	-0.05	7.58
3.848	-0.03	9.60	0.06	7.69
3.945	-0.02	9.61	0.01	7.64
4.035	-0.02	9.61	0.08	7.71
4.125	-0.02	9.61	-0.08	7.55
4.215	-0.02	9.61	0.07	7.70
4.308	-0.02	9.61	-0.08	7.55
4.419	-0.02	9.60	0.03	7.66
4.515	1.15	10.78	0.07	7.70
4.606	11.07	20.70	-0.04	7.58
4.695	17.84	27.47	0.02	7.65
4.785	23.96	33.59	0.07	7.70
4.875	26.24	35.87	-0.09	7.54
4.965	23.87	33.50	0.07	7.69
5.069	21.34	30.97	0.02	7.65
5.164	23.20	32.83	0.05	7.68
5.254	23.67	33.30	-0.02	7.61
5.344	23.30	32.93	-0.05	7.58
5.434	22.82	32.45	0.09	7.72
5.524	21.49	31.12	-0.07	7.56
5.614	19.91	29.54	0.04	7.67
5.704	15.62	25.25	-0.01	7.61
5.794	5.97	15.60	-0.06	7.57
5.884	8.64	18.27	0.09	7.71
5.974	15.05	24.68	-0.06	7.57
6.064	16.19	25.82	0.04	7.67
6.153	11.80	21.43	-0.00	7.63
6.243	7.31	16.94	-0.07	7.56
6.333	12.70	22.33	0.09	7.72
6.423	18.95	28.58	-0.06	7.57
6.516	21.97	31.59	0.08	7.71
6.613	20.30	29.93	0.03	7.66
6.703	19.79	29.42	0.01	7.64
6.793	17.73	27.36	-0.08	7.55
6.883	15.66	25.29	0.09	7.72
6.973	13.44	23.07	-0.06	7.57
7.063	13.41	23.03	0.03	7.66
7.153	19.26	28.89	0.03	7.65
7.243	25.07	34.70	-0.08	7.55
7.333	27.84	37.47	0.09	7.72
7.423	25.20	34.83	-0.05	7.58
7.513	20.14	29.77	0.03	7.66
7.603	19.22	28.85	0.04	7.67
7.693	21.37	31.00	-0.08	7.55
7.783	21.72	31.35	0.08	7.70
7.873	21.01	30.64	-0.05	7.58
7.963	20.28	29.91	0.02	7.65
8.052	18.55	28.18	0.05	7.68
8.142	16.63	26.25	-0.08	7.54
8.232	13.83	23.46	0.08	7.71
8.322	15.75	25.38	-0.04	7.59
8.412	22.89	32.52	0.02	7.65
8.502	28.72	38.35	0.06	7.69
8.592	31.22	40.85	-0.08	7.55
8.682	26.74	36.37	0.07	7.70
8.772	21.76	31.38	-0.03	7.60
8.862	22.81	32.44	0.01	7.64
8.952	24.99	34.62	0.07	7.70
9.045	25.07	34.70	-0.01	7.62
9.142	24.34	33.97	-0.08	7.55
9.232	22.62	32.25	0.07	7.70
9.322	20.16	29.79	-0.03	7.60
9.412	17.93	27.56	0.00	7.63
9.507	15.50	25.13	-0.07	7.56
9.602	20.82	30.45	0.08	7.71
9.692	27.89	37.52	-0.08	7.55
9.782	32.41	42.04	0.06	7.69
9.872	32.27	41.90	-0.03	7.60
9.961	26.01	35.64	-0.01	7.62
10.051	22.51	32.14	0.08	7.71
10.141	24.66	34.29	-0.08	7.55
10.231	25.66	35.28	0.06	7.69
10.321	25.08	34.71	-0.03	7.60
10.411	24.11	33.74	-0.02	7.61
10.501	21.76	31.39	0.08	7.71
10.591	19.26	28.89	-0.08	7.55
10.681	16.60	26.23	0.06	7.69
10.771	15.25	24.88	-0.03	7.60
10.861	21.37	31.00	-0.02	7.60
10.951	28.07	37.70	0.09	7.72
11.041	31.66	41.29	-0.07	7.55
11.131	29.73	39.36	0.06	7.69
11.221	23.59	33.22	-0.02	7.61
11.311	21.08	30.71	-0.03	7.60
11.401	23.50	33.13	0.08	7.71
11.491	23.92	33.55	-0.08	7.55
11.584	23.22	32.85	0.09	7.72
11.681	21.99	31.62	0.05	7.68
11.770	19.82	29.45	-0.02	7.61
11.860	17.72	27.34	-0.04	7.59
11.950	15.14	24.77	0.08	7.71
12.040	15.88	25.51	-0.07	7.55
12.130	22.70	32.33	0.05	7.68
12.220	28.88	38.51	-0.01	7.61
12.310	31.73	41.36	-0.04	7.59
12.400	27.95	37.58	0.08	7.71
12.490	22.30	31.93	-0.07	7.56
12.580	21.99	31.62	0.05	7.67
12.670	24.19	33.82	-0.02	7.61
12.760	24.32	33.95	-0.05	7.58
12.850	23.69	33.32	0.09	7.72
12.940	22.17	31.80	-0.07	7.56
13.030	19.80	29.43	0.04	7.67
13.120	17.44	27.07	-0.02	7.61
13.210	14.75	24.38	-0.05	7.58
13.300	17.24	26.87	0.09	7.72
13.390	24.47	34.10	-0.06	7.56
13.484	30.31	39.93	0.08	7.70
13.580	31.72	41.35	0.04	7.67
13.670	26.21	35.84	-0.01	7.61
13.759	21.60	31.23	-0.05	7.58
13.849	22.98	32.60	0.09	7.72
13.939	24.39	34.02	-0.06	7.56
14.035	23.84	33.47	0.02	7.65
14.129	23.01	32.64	0.04	7.67
14.219	21.12	30.75	-0.01	7.62
14.309	18.81	28.44	-0.05	7.57
14.399	16.29	25.92	0.09	7.71
14.489	14.45	24.08	-0.07	7.56
14.579	20.08	29.70	0.04	7.67
14.669	27.01	36.64	-0.01	7.62
14.759	31.31	40.94	-0.05	7.57
14.849	30.50	40.13	0.09	7.72
14.939	24.47	34.10	-0.07	7.56
15.029	21.31	30.94	0.04	7.67
15.119	23.62	33.25	-0.01	7.62
15.209	24.54	34.17	-0.06	7.57
15.299	23.87	33.50	0.09	7.72
15.389	22.92	32.55	-0.06	7.56
15.479	20.66	30.28	0.04	7.67
15.569	18.38	28.01	-0.01	7.62
15.658	15.78	25.41	-0.06	7.57
15.748	14.97	24.60	0.09	7.72
15.838	21.37	31.00	-0.06	7.56
15.928	27.98	37.61	0.04	7.67
16.018	31.48	41.11	-0.00	7.62
16.108	29.52	39.15	-0.06	7.57
16.198	23.58	33.21	0.09	7.71
16.288	21.47	31.10	-0.06	7.57
16.384	23.93	33.56	0.02	7.64
16.478	24.15	33.78	0.04	7.67
16.568	23.53	33.16	-0.01	7.62
16.658	22.26	31.89	-0.06	7.57
16.748	19.93	29.56	0.08	7.71
16.841	17.45	27.08	-0.04	7.58
16.938	14.71	24.34	-0.07	7.56
17.028	17.12	26.74	0.04	7.67
17.118	24.27	33.89	-0.01	7.62
17.208	30.05	39.68	-0.05	7.58
17.298	31.86	41.49	0.09	7.72
17.388	26.88	36.51	-0.07	7.56
17.478	21.76	31.39	0.04	7.67
17.567	22.53	32.16	-0.01	7.62
17.657	24.41	34.03	-0.05	7.57
17.747	24.07	33.70	0.09	7.71
17.837	23.30	32.93	-0.07	7.56
17.970	20.42	30.04	-0.06	7.57
18.067	18.16	27.79	-0.01	7.62
18.157	15.51	25.14	-0.05	7.58
18.247	15.63	25.25	0.08	7.71
18.337	22.37	32.00	-0.07	7.56
18.427	28.86	38.48	0.05	7.67
18.523	31.85	41.48	-0.07	7.55
18.617	27.82	37.45	-0.01	7.61
18.707	22.22	31.85	-0.05	7.58
18.797	22.00	31.63	0.08	7.71
18.887	24.17	33.80	-0.06	7.56
18.977	24.02	33.64	0.04	7.67
19.067	23.51	33.14	-0.01	7.62
19.157	21.88	31.50	-0.05	7.58
19.247	19.48	29.11	0.08	7.71
19.337	17.25	26.88	-0.07	7.56
19.426	14.64	24.27	0.04	7.67
19.516	17.28	26.91	-0.01	7.62
19.606	24.49	34.12	-0.04	7.58
19.696	30.09	39.72	0.09	7.71
19.786	31.50	41.13	-0.06	7.56
19.876	26.48	36.11	0.05	7.68
19.966	21.66	31.28	-0.01	7.61
20.056	22.67	32.30	-0.04	7.59
20.146	24.35	33.98	0.08	7.71
20.236	24.02	33.65	-0.07	7.56
20.326	23.33	32.96	0.05	7.68
20.416	21.35	30.98	-0.02	7.61
20.506	19.26	28.88	-0.04	7.59
20.596	16.87	26.50	0.08	7.71
20.686	14.46	24.09	-0.07	7.56
20.776	18.66	28.28	0.05	7.68
20.866	25.73	35.36	-0.02	7.61
20.956	30.70	40.33	-0.03	7.59
21.046	31.19	40.82	0.09	7.71
21.136	25.39	35.02	-0.07	7.56
21.226	21.21	30.83	0.05	7.68
21.316	23.12	32.75	-0.02	7.61
21.405	24.31	33.93	-0.03	7.60
21.495	23.93	33.56	0.08	7.71
21.587	23.04	32.67	-0.08	7.55
21.677	20.91	30.54	0.07	7.70
21.767	18.62	28.25	-0.05	7.58
21.857	16.11	25.74	0.02	7.65
21.946	14.40	24.03	0.05	7.67
22.036	20.27	29.90	-0.08	7.55
22.139	27.87	37.50	-0.01	7.62
22.235	31.66	41.28	-0.07	7.56
22.329	28.81	38.44	0.06	7.68
22.425	22.48	32.11	0.06	7.68
22.515	21.76	31.39	-0.02	7.60
22.605	24.02	33.65	-0.02	7.61
22.695	24.06	33.69	0.09	7.71
22.785	23.44	33.07	-0.07	7.55
22.875	22.14	31.77	0.06	7.68
22.971	19.58	29.21	-0.05	7.58
23.065	17.11	26.74	-0.03	7.60
23.155	14.57	24.20	-0.01	7.61
23.244	17.38	27.01	0.08	7.71
23.334	24.61	34.24	-0.08	7.55
23.424	30.17	39.80	0.06	7.69
23.514	31.78	41.41	-0.03	7.60
23.604	26.65	36.28	-0.01	7.62
23.694	21.78	31.41	0.08	7.71
23.784	22.75	32.38	-0.08	7.55
23.874	24.50	34.13	0.06	7.69
23.964	24.11	33.74	-0.03	7.60
24.054	23.41	33.04	-0.00	7.62
24.144	21.50	31.13	0.08	7.71
24.234	19.29	28.92	-0.08	7.55
24.324	16.82	26.44	0.06	7.69
24.414	14.51	24.14	-0.03	7.60
24.504	18.81	28.43	-0.00	7.63
24.594	25.92	35.55	0.07	7.70
24.684	30.82	40.44	-0.08	7.55
24.774	31.27	40.90	0.06	7.69
24.864	25.62	35.25	-0.03	7.59
24.954	21.38	31.01	0.01	7.63
25.044	23.39	33.02	0.07	7.70
25.133	24.56	34.19	-0.08	7.55
25.223	23.98	33.61	0.07	7.70
25.313	23.26	32.89	-0.03	7.60
25.403	21.26	30.89	0.01	7.63
25.493	18.83	28.46	0.07	7.70
25.583	16.32	25.95	-0.08	7.55
25.673	14.45	24.08	0.07	7.70
25.763	20.11	29.74	-0.04	7.59
25.853	27.28	36.91	0.01	7.64
25.943	31.65	41.28	0.07	7.69
26.033	30.76	40.38	-0.08	7.55
26.123	24.66	34.29	0.07	7.69
26.213	21.38	31.01	-0.03	7.59
26.303	23.85	33.48	0.01	7.64
26.393	24.57	34.20	0.06	7.69
26.483	23.74	33.37	-0.08	7.55
26.573	22.83	32.46	0.07	7.69
26.676	20.37	29.99	0.07	7.70
26.773	17.85	27.48	0.07	7.70
26.863	15.16	24.79	-0.04	7.59
26.953	16.24	25.87	0.02	7.64
27.042	23.23	32.86	0.06	7.69
27.132	29.47	39.10	-0.08	7.55
27.222	32.17	41.80	0.07	7.70
27.312	28.33	37.96	-0.03	7.59
27.423	21.76	31.39	0.08	7.70
27.517	22.96	32.59	-0.07	7.55
27.612	24.48	34.11	-0.04	7.59
27.702	24.06	33.69	0.02	7.65
27.792	23.39	33.02	0.05	7.68
27.882	21.37	31.00	-0.08	7.55
27.972	19.05	28.68	0.07	7.70
28.062	16.69	26.32	-0.04	7.59
28.152	14.59	24.22	0.02	7.64
28.242	19.71	29.34	0.05	7.68
28.332	26.82	36.45	-0.08	7.55
28.422	31.27	40.90	0.07	7.70
28.512	30.84	40.47	-0.04	7.59
28.602	24.92	34.55	0.02	7.65
28.692	21.41	31.04	0.05	7.68
28.782	23.67	33.30	-0.08	7.55
28.872	24.54	34.17	0.08	7.71
28.961	23.84	33.47	-0.04	7.59
29.051	23.06	32.69	0.02	7.65
29.141	20.94	30.57	0.05	7.67
29.231	18.68	28.31	-0.08	7.55
29.321	16.07	25.70	0.07	7.70
29.411	14.83	24.46	-0.04	7.58
29.501	21.00	30.63	0.02	7.65
29.591	27.69	37.32	0.04	7.67
29.681	31.84	41.47	-0.08	7.55
29.771	30.11	39.73	0.07	7.70
29.861	24.02	33.65	-0.05	7.58
29.951	21.60	31.23	0.03	7.65
30.041	24.07	33.70	0.05	7.67
30.131	24.52	34.15	-0.08	7.55
30.221	23.74	33.37	0.07	7.70
30.311	22.77	32.40	-0.05	7.58
30.401	20.44	30.07	0.02	7.65
30.491	18.21	27.84	0.04	7.67
30.581	15.64	25.27	-0.08	7.55
30.671	15.63	25.25	0.08	7.70
30.760	22.44	32.07	-0.04	7.58
30.850	28.92	38.55	0.03	7.65
30.940	32.18	41.81	0.04	7.67
31.030	29.11	38.74	-0.08	7.55
31.125	22.96	32.58	-0.00	7.63
31.220	22.40	32.03	0.08	7.71
31.310	24.50	34.13	-0.05	7.58
31.400	24.33	33.96	0.02	7.65
31.490	23.49	33.12	0.04	7.67
31.580	22.14	31.77	-0.08	7.55
31.670	19.74	29.37	0.08	7.71
31.760	17.41	27.04	-0.05	7.58
31.850	14.74	24.37	0.02	7.65
31.941	17.41	27.04	-0.01	7.62
32.046	25.84	35.47	-0.08	7.55
32.140	31.11	40.73	0.05	7.68
32.230	31.44	41.07	-0.08	7.55
32.320	25.55	35.18	0.09	7.71
32.410	21.42	31.05	-0.04	7.58
32.500	23.36	32.99	0.03	7.65
32.590	24.76	34.39	0.04	7.67
32.699	24.01	33.64	0.00	7.63
32.789	23.01	32.64	0.04	7.67
32.879	20.58	30.21	-0.08	7.55
32.969	18.37	27.99	0.08	7.71
33.059	15.81	25.43	-0.04	7.58
33.149	15.35	24.98	0.02	7.65
33.239	21.92	31.54	0.05	7.67
33.329	28.43	38.06	-0.08	7.55
33.419	31.83	41.46	0.08	7.71
33.509	29.44	39.07	-0.05	7.58
33.599	23.48	33.11	0.02	7.65
33.689	21.77	31.40	0.05	7.67
33.779	24.11	33.73	-0.08	7.55
33.869	24.48	34.11	0.08	7.71
33.959	23.77	33.40	-0.04	7.58
34.049	22.62	32.24	0.02	7.65
34.139	20.33	29.96	0.04	7.67
34.229	17.94	27.57	-0.08	7.55
34.319	15.24	24.87	0.08	7.71
34.409	16.21	25.84	-0.04	7.59
34.499	23.25	32.88	0.02	7.65
34.589	29.57	39.20	0.05	7.68
34.678	32.22	41.85	-0.08	7.55
34.768	28.26	37.89	0.08	7.70
34.858	22.64	32.27	-0.04	7.59
34.948	22.26	31.89	0.02	7.65
35.038	24.48	34.11	0.05	7.68
35.128	24.30	33.93	-0.08	7.55
35.218	23.60	33.23	0.08	7.71
35.308	22.24	31.87	-0.04	7.58
35.398	19.87	29.50	0.02	7.65
35.488	17.62	27.25	0.05	7.68
35.582	14.81	24.44	0.04	7.66
35.678	18.16	27.79	-0.08	7.54
35.768	25.43	35.06	0.08	7.71
35.858	30.81	40.44	-0.04	7.59
35.948	31.89	41.52	0.02	7.65
36.038	26.35	35.98	0.06	7.69
36.128	21.69	31.32	-0.08	7.55
36.218	23.07	32.70	0.08	7.70
36.308	24.52	34.15	-0.04	7.59
36.398	24.09	33.72	0.02	7.65
36.487	23.44	33.07	0.06	7.69
36.583	21.26	30.89	0.06	7.69
36.677	18.83	28.45	-0.08	7.55
36.767	16.37	26.00	0.07	7.70
36.857	14.50	24.13	-0.03	7.59
36.947	20.27	29.90	0.01	7.64
37.037	27.26	36.89	0.07	7.70
37.128	31.52	41.15	-0.07	7.55
37.218	30.42	40.05	0.09	7.72
37.308	24.37	33.99	-0.06	7.57
37.398	21.41	31.04	0.04	7.67
37.488	23.91	33.53	0.01	7.64
37.578	24.56	34.19	-0.07	7.55
37.668	23.82	33.45	0.09	7.72
37.758	22.85	32.48	-0.06	7.57
37.848	20.63	30.26	0.03	7.66
37.938	18.31	27.94	0.01	7.64
38.076	14.38	24.01	-0.08	7.55
38.168	18.46	28.09	0.09	7.71
38.258	25.70	35.33	-0.05	7.58
38.348	30.88	40.51	0.04	7.66
38.438	31.76	41.39	0.02	7.65
38.532	25.77	35.40	0.05	7.68
38.626	21.54	31.17	-0.08	7.55
38.716	23.54	33.17	0.07	7.70
38.806	24.64	34.27	-0.03	7.59
38.896	24.14	33.77	-0.00	7.62
38.986	23.27	32.90	0.08	7.70
39.076	21.15	30.78	-0.08	7.54
39.166	18.81	28.44	0.06	7.69
39.256	16.19	25.82	-0.03	7.60
39.346	14.62	24.24	-0.00	7.62
39.436	20.70	30.33	0.08	7.71
39.526	27.74	37.37	-0.08	7.55
39.616	31.88	41.51	0.06	7.69
39.706	30.81	40.44	-0.03	7.60
39.796	24.52	34.15	-0.01	7.61
39.886	21.59	31.22	0.09	7.71
39.976	23.98	33.61	-0.08	7.55
40.075	24.54	34.17	-0.07	7.56
40.166	23.76	33.39	0.06	7.69
40.256	22.73	32.36	-0.03	7.60
40.345	20.40	30.03	-0.03	7.60
40.435	18.14	27.77	0.09	7.71
40.525	15.49	25.12	-0.08	7.55
40.615	15.85	25.48	0.06	7.69
40.705	22.85	32.48	-0.02	7.60
40.795	29.41	39.03	-0.03	7.60
40.885	32.43	42.06	0.09	7.71
40.975	28.91	38.54	-0.08	7.55
41.065	23.03	32.66	0.05	7.68
41.161	22.23	31.86	-0.06	7.57
41.255	24.59	34.22	-0.02	7.61
41.345	24.46	34.09	-0.04	7.59
41.435	23.72	33.35	0.09	7.72
41.525	22.14	31.77	-0.08	7.55
41.615	19.75	29.38	0.05	7.68
41.705	17.38	27.01	-0.02	7.61
41.795	14.66	24.29	-0.04	7.58
41.885	17.71	27.33	0.09	7.72
41.975	24.96	34.59	-0.07	7.56
42.065	30.53	40.16	0.05	7.67
42.154	32.10	41.73	-0.01	7.62
42.245	26.93	36.56	-0.05	7.58
42.336	21.90	31.53	0.07	7.69
42.426	23.13	32.75	-0.09	7.54
42.516	24.68	34.31	0.07	7.70
42.606	24.22	33.84	-0.03	7.59
42.696	23.53	33.16	0.01	7.63
42.786	21.60	31.23	0.07	7.70
42.875	19.24	28.87	-0.09	7.54
42.965	16.81	26.44	0.07	7.69
43.055	14.47	24.10	-0.04	7.59
43.145	19.08	28.71	-0.00	7.63
43.240	26.86	36.49	-0.05	7.57
43.341	31.88	41.51	-0.07	7.56
43.434	30.69	40.32	0.09	7.72
43.524	24.50	34.13	-0.06	7.57
43.614	21.60	31.23	0.04	7.67
43.704	24.03	33.66	0.00	7.63
43.794	24.68	34.30	-0.07	7.55
43.884	23.89	33.52	0.09	7.72
43.974	22.96	32.59	-0.06	7.57
44.063	20.59	30.22	0.03	7.66
44.153	18.43	28.06	0.01	7.64
44.243	15.73	25.36	-0.08	7.55
44.333	15.25	24.88	0.09	7.71
44.428	22.40	32.03	-0.04	7.59
44.523	29.46	39.09	-0.06	7.57
44.613	32.47	42.10	0.03	7.66
44.703	29.07	38.70	0.02	7.64
44.793	23.13	32.75	-0.08	7.55
44.883	22.28	31.91	0.08	7.71
44.973	24.47	34.10	-0.06	7.57
45.063	24.56	34.19	0.03	7.66
45.153	23.89	33.52	0.03	7.66
45.243	22.39	32.02	-0.08	7.55
45.333	20.11	29.74	0.08	7.71
45.423	17.86	27.49	-0.05	7.57
45.513	15.07	24.70	0.03	7.66
45.609	17.51	27.14	-0.08	7.55
45.703	25.15	34.78	0.04	7.67
45.793	30.70	40.33	-0.08	7.55
45.883	32.22	41.85	0.08	7.71
45.972	26.84	36.47	-0.05	7.58
46.062	21.89	31.52	0.03	7.66
46.152	23.07	32.70	0.04	7.67
46.242	24.69	34.32	-0.08	7.54
46.332	24.27	33.90	0.08	7.71
46.422	23.45	33.08	-0.05	7.58
46.512	21.54	31.17	0.02	7.65
46.602	19.18	28.81	0.05	7.67
46.692	16.79	26.42	-0.08	7.54
46.782	14.33	23.96	0.08	7.71
46.872	18.90	28.53	-0.04	7.59
46.962	26.27	35.90	0.02	7.65
47.052	31.34	40.97	0.05	7.68
47.142	31.68	41.31	-0.09	7.54
47.232	25.84	35.47	0.07	7.70
47.322	21.78	31.41	-0.04	7.59
47.412	23.59	33.22	0.01	7.64
47.503	24.81	34.44	0.00	7.63
47.593	24.22	33.85	-0.07	7.56
47.683	23.37	33.00	0.09	7.72
47.773	21.20	30.83	-0.06	7.57
47.863	18.91	28.54	0.04	7.66
47.958	16.10	25.73	-0.08	7.54
48.051	14.79	24.42	0.07	7.70
48.141	21.32	30.94	-0.08	7.55
48.231	28.21	37.84	0.07	7.70
48.321	32.14	41.77	-0.03	7.60
48.411	30.30	39.93	0.00	7.63
48.501	24.18	33.80	0.08	7.70
48.595	21.93	31.56	0.01	7.64
48.691	24.49	34.12	-0.08	7.54
48.785	24.57	34.20	0.04	7.67
48.881	23.66	33.29	0.06	7.69
48.971	22.55	32.18	-0.03	7.60
49.061	20.20	29.83	-0.00	7.62
49.151	17.58	27.21	0.08	7.70
49.241	14.83	24.46	-0.08	7.55
49.331	17.01	26.64	0.06	7.69
49.421	24.30	33.93	-0.03	7.59
49.511	30.39	40.02	-0.01	7.62
49.601	32.46	42.08	0.08	7.71
49.691	27.65	37.28	-0.08	7.55
49.780	22.37	32.00	0.06	7.69
49.870	22.83	32.46	-0.03	7.60
49.960	24.79	34.42	-0.02	7.61
50.056	24.34	33.97	-0.07	7.56
50.150	23.65	33.28	0.08	7.71
50.240	21.85	31.48	-0.08	7.55
50.330	19.49	29.12	0.05	7.68
50.420	16.87	26.49	-0.03	7.60
50.510	14.61	24.23	-0.03	7.60
50.600	19.12	28.75	0.09	7.71
50.690	26.41	36.03	-0.08	7.55
50.780	31.22	40.85	0.06	7.69
50.870	31.58	41.21	-0.02	7.61
50.960	25.75	35.38	-0.03	7.59
51.050	21.80	31.43	0.09	7.72
51.142	23.85	33.48	-0.07	7.56
51.240	24.91	34.54	-0.07	7.55
51.330	24.10	33.73	0.05	7.67
51.420	23.41	33.03	-0.02	7.61
51.510	21.34	30.97	-0.05	7.58
51.600	18.93	28.55	0.09	7.72
51.689	16.25	25.88	-0.07	7.56
51.779	15.11	24.73	0.04	7.67
51.869	21.51	31.14	-0.01	7.62
51.959	28.53	38.16	-0.05	7.58
52.049	32.28	41.91	0.09	7.72
52.139	30.51	40.14	-0.07	7.56
52.229	24.34	33.97	0.04	7.67
52.319	22.03	31.66	-0.01	7.62
52.409	24.46	34.09	-0.06	7.57
52.501	24.82	34.45	0.04	7.67
52.592	23.80	33.43	-0.06	7.56
52.689	22.71	32.34	-0.07	7.56
52.779	20.47	30.10	0.04	7.67
52.876	17.96	27.59	-0.06	7.57
52.969	15.06	24.69	0.01	7.63
53.059	17.13	26.76	-0.07	7.56
53.149	24.46	34.09	0.09	7.72
53.239	30.37	40.00	-0.06	7.57
53.329	32.44	42.07	0.04	7.66
53.418	27.63	37.26	0.02	7.64
53.508	22.40	32.03	-0.08	7.55
53.598	22.89	32.52	0.09	7.71
53.688	24.74	34.37	-0.06	7.57
53.778	24.52	34.15	0.03	7.66
53.868	23.68	33.31	0.02	7.65
53.961	21.99	31.62	0.02	7.65
54.058	19.54	29.17	-0.08	7.55
54.148	17.04	26.67	0.08	7.71
54.238	14.64	24.27	-0.05	7.57
54.328	19.22	28.85	0.03	7.66
54.418	26.53	36.15	0.04	7.67
54.508	31.40	41.03	-0.08	7.55
54.603	31.44	41.07	-0.03	7.60
54.698	25.12	34.75	0.09	7.72
54.788	21.63	31.26	-0.05	7.58
54.878	23.92	33.54	0.02	7.65
54.968	24.74	34.37	0.05	7.68
55.058	24.05	33.68	-0.08	7.55
55.147	23.20	32.83	0.07	7.70
55.237	21.06	30.69	-0.04	7.59
55.327	18.82	28.44	0.02	7.65
55.417	16.29	25.92	0.06	7.68
55.507	15.15	24.78	-0.08	7.54
55.597	21.45	31.08	0.07	7.70
55.687	28.36	37.99	-0.03	7.60
55.777	32.47	42.10	0.01	7.64
55.867	30.45	40.08	0.06	7.69
55.957	24.26	33.89	-0.08	7.55
56.047	21.99	31.62	0.07	7.70
56.137	24.44	34.07	-0.03	7.60
56.227	24.90	34.53	0.00	7.63
56.317	23.98	33.61	0.08	7.70
56.407	23.04	32.67	-0.08	7.54
56.497	20.71	30.34	0.06	7.69
56.587	18.19	27.82	-0.04	7.59
56.677	15.44	25.07	-0.01	7.62
56.767	15.86	25.48	0.08	7.71
56.857	22.98	32.60	-0.08	7.55
56.946	29.44	39.07	0.06	7.69
57.036	32.68	42.31	-0.03	7.60
57.126	29.16	38.79	-0.02	7.61
57.216	23.28	32.91	0.08	7.71
57.306	22.33	31.96	-0.08	7.55
57.405	24.67	34.30	-0.06	7.57
57.503	24.49	34.12	-0.02	7.60
57.596	23.63	33.25	0.06	7.69
57.688	22.10	31.73	-0.07	7.56
57.779	19.67	29.30	0.06	7.68
57.876	17.05	26.68	-0.04	7.59
57.966	14.66	24.29	0.08	7.71
58.056	19.35	28.98	-0.08	7.55
58.146	26.65	36.28	0.05	7.68
58.236	31.64	41.27	-0.02	7.61
58.326	31.81	41.44	-0.04	7.59
58.416	25.80	35.43	0.09	7.71
58.506	21.67	31.29	-0.07	7.56
58.596	23.69	33.32	0.04	7.67
58.685	24.89	34.52	-0.01	7.61
58.775	24.26	33.89	-0.05	7.58
58.865	23.45	33.08	0.09	7.71
58.955	21.51	31.14	-0.07	7.56
59.045	18.99	28.62	0.04	7.67
59.141	16.25	25.88	-0.08	7.54
59.277	17.53	27.16	0.02	7.64
59.369	24.98	34.61	-0.01	7.62
59.465	30.89	40.52	0.09	7.71
59.555	32.29	41.92	-0.07	7.56
59.645	26.82	36.44	0.04	7.67
59.735	22.07	31.70	-0.00	7.63
59.825	23.58	33.21	-0.07	7.56
59.915	24.98	34.61	0.10	7.72
60.005	24.38	34.01	-0.06	7.57
60.095	23.65	33.28	0.03	7.66
60.185	22.01	31.64	0.00	7.63
60.275	19.52	29.15	-0.08	7.55
60.365	17.04	26.67	0.09	7.72
60.454	14.72	24.35	-0.06	7.57
60.544	19.67	29.30	0.03	7.66
60.634	27.13	36.76	0.01	7.64
60.724	31.87	41.50	-0.08	7.55
60.814	31.77	41.40	0.09	7.72
60.904	25.61	35.24	-0.06	7.57
60.994	21.80	31.43	0.03	7.66
61.084	24.01	33.64	0.02	7.65
61.174	24.96	34.59	-0.08	7.55
61.264	24.17	33.80	0.09	7.72
61.354	23.34	32.97	-0.05	7.58
61.444	21.34	30.97	0.03	7.66
61.534	19.05	28.68	0.03	7.65
61.624	16.47	26.10	-0.08	7.55
61.714	14.95	24.58	0.08	7.71
61.804	21.08	30.71	-0.05	7.57
61.901	28.63	38.26	0.02	7.65
61.994	32.55	42.18	0.03	7.66
62.084	30.41	40.04	0.04	7.66
62.174	24.28	33.91	-0.08	7.55
62.263	22.13	31.76	0.09	7.71
62.353	24.59	34.22	-0.05	7.58
62.443	24.89	34.52	0.03	7.65
62.533	24.06	33.69	0.04	7.66
62.623	23.06	32.69	-0.08	7.55
62.713	20.80	30.43	0.08	7.71
62.803	18.30	27.93	-0.05	7.58
62.895	15.47	25.09	0.06	7.69
62.986	16.37	26.00	-0.04	7.59
63.083	24.14	33.77	0.05	7.68
63.173	30.27	39.90	-0.08	7.55
63.263	32.65	42.28	0.08	7.70
63.353	28.23	37.86	-0.04	7.59
63.443	22.70	32.33	0.02	7.65
63.533	22.90	32.53	0.05	7.68
63.623	24.90	34.53	-0.08	7.54
63.723	24.57	34.20	-0.08	7.55
63.819	23.67	33.30	-0.04	7.59
63.913	21.89	31.52	0.07	7.70
64.002	19.62	29.25	-0.04	7.59
64.092	16.98	26.61	0.01	7.64
64.182	14.76	24.38	0.06	7.69
64.272	19.75	29.38	-0.08	7.54
64.362	27.05	36.68	0.07	7.70
64.452	32.00	41.63	-0.03	7.59
64.545	31.79	41.42	0.06	7.69
64.642	25.15	34.78	0.00	7.63
64.732	21.93	31.56	0.07	7.70
64.822	24.24	33.87	-0.08	7.55
64.912	24.95	34.58	0.07	7.70
65.002	24.11	33.74	-0.03	7.60
65.092	23.25	32.88	-0.00	7.62
65.182	21.18	30.81	0.07	7.70
65.272	18.89	28.52	-0.09	7.54
65.362	16.22	25.85	0.06	7.69
65.452	15.46	25.09	-0.03	7.60
65.542	22.10	31.73	-0.01	7.62
65.632	28.92	38.55	0.09	7.71
65.721	32.74	42.37	-0.08	7.55
65.811	30.36	39.99	0.06	7.69
65.901	24.18	33.81	-0.03	7.60
65.991	22.22	31.85	-0.02	7.61
66.081	24.61	34.24	0.09	7.71
66.171	24.86	34.48	-0.08	7.55
66.268	23.87	33.50	-0.03	7.60
66.361	22.87	32.50	0.05	7.68
66.451	20.50	30.13	-0.02	7.60
66.541	18.17	27.80	-0.03	7.60
66.631	15.44	25.07	0.08	7.71
66.721	16.94	26.57	-0.07	7.55
66.811	24.17	33.80	0.05	7.68
66.901	30.29	39.92	-0.02	7.61
66.991	32.71	42.34	-0.04	7.59
67.081	28.23	37.85	0.09	7.71
67.171	22.74	32.37	-0.07	7.55
67.261	22.86	32.48	0.04	7.67
67.351	24.89	34.52	-0.01	7.61
67.440	24.63	34.26	-0.05	7.58
67.530	23.77	33.40	0.09	7.71
67.620	22.22	31.85	-0.07	7.56
67.710	19.80	29.43	0.04	7.67
67.800	17.52	27.15	-0.01	7.62
67.890	14.87	24.50	-0.06	7.57
67.980	18.04	27.67	0.09	7.72
68.073	25.61	35.24	-0.08	7.55
68.163	31.03	40.66	0.09	7.72
68.265	31.82	41.45	0.05	7.68
68.360	25.54	35.17	0.03	7.66
68.450	21.67	31.29	0.00	7.63
68.540	23.76	33.39	-0.07	7.56
68.630	24.78	34.41	0.09	7.72
68.720	24.17	33.80	-0.06	7.57
68.810	23.38	33.01	0.03	7.66
68.900	21.28	30.91	0.01	7.64
68.990	18.97	28.60	-0.08	7.55
69.080	16.56	26.19	0.09	7.71
69.170	15.03	24.65	-0.06	7.57
69.259	21.19	30.82	0.04	7.66
69.349	28.38	38.01	0.03	7.65
69.439	32.42	42.05	-0.08	7.55
69.529	30.90	40.53	0.09	7.72
69.619	24.64	34.27	-0.05	7.57
69.709	22.01	31.64	0.03	7.65
69.802	24.46	34.08	-0.04	7.59
69.899	24.88	34.51	0.04	7.67
69.989	23.91	33.54	-0.08	7.54
70.079	23.03	32.66	0.08	7.71
70.169	20.69	30.32	-0.05	7.58
70.259	18.36	27.99	0.02	7.64
70.349	15.70	25.33	0.05	7.68
70.439	16.27	25.90	-0.08	7.55
70.529	23.41	33.03	0.07	7.70
70.626	30.21	39.84	0.02	7.65
70.719	32.76	42.39	-0.04	7.59
70.809	28.26	37.89	0.01	7.64
70.899	22.68	32.30	0.07	7.69
70.988	22.84	32.47	-0.08	7.54
71.078	24.81	34.44	0.07	7.70
71.168	24.67	34.29	-0.04	7.59
71.258	23.78	33.41	-0.00	7.63
71.348	22.36	31.99	0.07	7.70
71.438	19.94	29.57	-0.09	7.54
71.528	17.56	27.19	0.07	7.69
71.618	14.83	24.46	-0.03	7.60
71.708	18.07	27.70	-0.01	7.62
71.798	25.44	35.07	0.08	7.71
71.888	30.82	40.45	-0.08	7.55
71.978	32.11	41.73	0.06	7.69
72.068	26.89	36.52	-0.03	7.60
72.158	22.09	31.72	-0.02	7.61
72.248	23.43	33.05	0.09	7.72
72.338	24.91	34.53	-0.08	7.55
72.428	24.45	34.08	0.06	7.69
72.518	23.59	33.22	-0.02	7.60
72.608	21.96	31.59	-0.04	7.59
72.703	19.28	28.90	-0.05	7.58
72.797	16.70	26.33	0.09	7.71
72.887	14.81	24.44	-0.08	7.55
72.977	20.39	30.02	0.05	7.67
73.067	27.65	37.28	-0.01	7.61
73.157	32.27	41.90	-0.05	7.58
73.253	31.33	40.95	-0.05	7.57
73.347	24.85	34.48	0.09	7.72
73.437	22.12	31.74	-0.07	7.56
73.527	24.57	34.20	0.04	7.66
73.617	25.06	34.69	-0.00	7.63
73.707	24.10	33.73	-0.07	7.56
73.797	23.26	32.89	0.09	7.72
73.887	20.99	30.62	-0.06	7.56
73.977	18.69	28.32	0.03	7.66
74.067	16.11	25.74	0.01	7.63
74.157	15.79	25.42	-0.08	7.55
74.247	22.64	32.27	0.09	7.71
74.337	29.39	39.02	-0.05	7.57
74.427	32.78	42.41	0.03	7.66
74.516	29.94	39.57	0.02	7.65
74.606	23.76	33.38	-0.08	7.55
74.696	22.32	31.95	0.08	7.71
74.786	24.63	34.26	-0.06	7.57
74.876	24.72	34.35	0.03	7.66
74.973	23.96	33.59	-0.08	7.55
75.069	22.64	32.27	-0.04	7.59
75.166	20.07	29.70	0.04	7.66
75.256	17.67	27.30	-0.08	7.55
75.346	14.94	24.57	0.08	7.71
75.436	18.30	27.93	-0.05	7.58
75.526	25.83	35.46	0.02	7.65
75.616	31.32	40.95	0.05	7.68
75.706	32.47	42.10	-0.08	7.55
75.796	27.04	36.67	0.08	7.70
75.886	22.31	31.93	-0.04	7.59
75.976	23.61	33.24	0.02	7.65
76.066	25.06	34.69	0.06	7.69
76.155	24.56	34.18	-0.08	7.54
76.245	23.73	33.35	0.07	7.70
76.335	21.98	31.61	-0.03	7.59
76.425	19.65	29.28	0.01	7.63
76.515	17.23	26.86	0.06	7.69
76.605	14.93	24.56	-0.08	7.54
76.695	19.69	29.32	0.07	7.70
76.785	26.98	36.61	-0.03	7.59
76.875	31.84	41.47	0.00	7.63
76.965	32.10	41.73	0.07	7.70
77.055	26.00	35.63	-0.09	7.54
77.150	21.99	31.62	-0.01	7.62
77.245	24.36	33.99	0.06	7.69
77.335	25.03	34.66	-0.03	7.60
77.425	24.25	33.88	-0.01	7.62
77.515	23.47	33.10	0.08	7.70
77.605	21.34	30.97	-0.09	7.54
77.695	18.95	28.58	0.06	7.68
77.785	16.18	25.81	-0.03	7.60
77.875	15.27	24.90	-0.02	7.61
77.964	21.93	31.55	0.09	7.72
78.054	28.77	38.40	-0.08	7.55
78.144	32.57	42.20	0.06	7.69
78.234	30.53	40.16	-0.03	7.60
78.324	24.42	34.05	-0.03	7.60
78.417	22.34	31.97	-0.00	7.62
78.508	24.79	34.42	-0.03	7.60
78.604	24.87	34.50	-0.08	7.55
78.694	23.82	33.44	0.06	7.68
78.784	23.09	32.72	-0.02	7.61
78.874	20.73	30.36	-0.04	7.59
78.964	18.28	27.91	0.09	7.71
79.054	15.49	25.12	-0.08	7.55
79.144	16.72	26.35	0.05	7.68
79.234	24.05	33.68	-0.01	7.61
79.324	30.34	39.97	-0.04	7.59
79.421	32.69	42.32	-0.08	7.55
79.514	27.74	37.37	0.08	7.71
79.604	22.49	32.12	-0.08	7.55
79.693	23.21	32.84	0.05	7.67
79.783	25.04	34.67	-0.02	7.61
79.873	24.73	34.36	-0.05	7.58
79.963	23.81	33.44	0.09	7.71
80.053	22.32	31.95	-0.07	7.56
80.143	19.84	29.47	0.04	7.67
80.233	17.33	26.96	-0.01	7.62
80.326	14.62	24.25	0.04	7.66
80.423	19.67	29.30	-0.06	7.57
80.513	27.08	36.71	0.09	7.72
80.603	32.03	41.66	-0.07	7.56
80.693	32.22	41.85	0.04	7.67
80.783	26.04	35.67	-0.01	7.62
80.873	21.92	31.55	-0.06	7.57
80.963	24.01	33.64	0.08	7.71
81.053	24.99	34.62	-0.07	7.56
81.143	24.27	33.90	0.04	7.67
81.233	23.36	32.99	-0.01	7.62
81.323	10.99	20.62	-0.06	7.56
81.412	-0.73	8.90	0.09	7.71
81.502	-4.54	5.09	-0.07	7.56
81.635	-1.19	8.44	-0.06	7.57
81.732	1.26	10.89	-0.00	7.62
81.822	1.34	10.97	-0.08	7.55
81.912	-0.02	9.61	0.09	7.72
82.002	-1.11	8.52	-0.07	7.56
82.092	-1.13	8.50	0.04	7.66
82.182	-0.44	9.19	0.00	7.63
82.272	0.15	9.78	-0.07	7.55
82.362	0.14	9.77	0.09	7.72
82.452	-0.31	9.32	-0.06	7.57
82.542	-0.66	8.97	0.03	7.66
82.632	-0.66	8.97	0.00	7.63
82.722	-0.40	9.23	-0.08	7.55
82.812	-0.18	9.44	0.09	7.71
82.902	-0.23	9.40	-0.06	7.57
82.992	-0.42	9.20	0.03	7.66
83.082	-0.54	9.09	0.01	7.64
83.172	-0.50	9.13	-0.08	7.55
83.261	-0.38	9.25	0.08	7.71
83.351	-0.31	9.32	-0.06	7.57
83.441	-0.35	9.28	0.03	7.66
83.531	-0.43	9.20	0.01	7.64
83.623	-0.47	9.16	0.00	7.63
83.714	-0.44	9.19	0.02	7.65
83.833	-0.38	9.24	-0.04	7.59
83.924	-0.38	9.25	0.03	7.65
84.021	-0.41	9.22	-0.08	7.54
84.111	-0.43	9.20	0.08	7.71
84.201	-0.43	9.20	-0.06	7.57
84.291	-0.41	9.22	0.03	7.66
84.381	-0.40	9.23	0.02	7.65
84.471	-0.40	9.23	-0.08	7.54
84.561	-0.41	9.22	0.08	7.71
84.651	-0.42	9.21	-0.05	7.57
84.741	-0.42	9.21	0.02	7.65
84.831	-0.41	9.22	0.02	7.65
84.921	-0.41	9.22	-0.09	7.54
85.010	-0.42	9.21	0.08	7.71
85.100	-0.43	9.20	-0.05	7.58
85.190	-0.44	9.18	0.03	7.65
85.280	-0.45	9.18	0.03	7.66
85.370	-0.46	9.17	-0.08	7.54
85.460	-0.47	9.16	0.08	7.71
85.550	-0.48	9.15	-0.06	7.57
85.643	-0.50	9.13	0.07	7.70
85.740	-0.49	9.14	0.02	7.65
85.830	-0.49	9.14	0.04	7.67
85.920	-0.49	9.14	-0.08	7.55
86.010	-0.49	9.13	0.08	7.71
86.109	-0.52	9.11	0.05	7.68
86.203	-0.50	9.13	-0.09	7.54
86.300	-0.50	9.13	-0.05	7.58
86.390	-0.50	9.13	0.02	7.65
86.480	-0.50	9.13	0.04	7.67
86.570	-0.50	9.13	-0.09	7.54
86.660	-0.50	9.13	0.08	7.71
86.750	-0.50	9.13	-0.05	7.58
86.839	-0.50	9.13	0.02	7.65
86.929	-0.50	9.13	0.04	7.67
87.019	-0.51	9.12	-0.09	7.54
87.109	-0.51	9.12	0.07	7.70
87.199	-0.51	9.12	-0.05	7.58
87.289	-0.51	9.12	0.02	7.64
87.379	-0.51	9.12	0.04	7.67
87.469	-0.51	9.12	-0.09	7.54
87.559	-0.51	9.12	0.08	7.70
87.649	-0.51	9.12	-0.04	7.58
87.739	-0.51	9.12	0.02	7.65
87.829	-0.51	9.12	0.05	7.68
87.919	-0.51	9.12	-0.08	7.54
88.009	-0.51	9.12	0.07	7.70
88.099	-0.51	9.12	-0.04	7.58
88.189	-0.51	9.12	0.02	7.64
88.279	-0.48	9.15	0.05	7.68
88.375	-0.49	9.14	0.07	7.70
88.469	-0.47	9.16	-0.08	7.54
88.558	-0.46	9.17	0.06	7.69
88.648	-0.52	9.11	-0.03	7.60
88.738	-0.30	9.33	0.02	7.64
88.830	-0.42	9.21	-0.03	7.60
88.921	-0.48	9.14	0.02	7.65
89.018	-0.48	9.14	-0.04	7.59
89.108	-0.44	9.18	0.05	7.68
89.198	-0.45	9.18	-0.04	7.59
89.288	-0.46	9.17	0.02	7.65
89.378	-0.46	9.17	0.01	7.64
89.468	-0.54	9.09	-0.08	7.55
89.558	-0.56	9.07	0.07	7.70
89.648	-0.56	9.07	-0.04	7.59
89.738	-0.56	9.07	0.02	7.65
89.828	-0.56	9.07	0.05	7.68
89.918	-0.57	9.06	-0.09	7.54
90.008	-0.56	9.07	0.07	7.70
90.098	-0.56	9.07	-0.04	7.59
90.188	-0.56	9.07	0.01	7.63
90.277	-0.51	9.12	0.03	7.66
