Tempo(s)	P0(KPa)	P0+Coluna(KPa)	P1(KPa)	P1+Coluna(KPa)
0.067	-0.56	8.59	-0.08	7.58
0.165	-0.56	8.59	-0.08	7.58
0.254	-0.57	8.59	0.02	7.68
0.344	-0.57	8.58	-0.01	7.65
0.434	-0.57	8.59	-0.07	7.59
0.528	-0.57	8.58	-0.02	7.64
0.624	-0.57	8.58	0.07	7.73
0.714	-0.57	8.58	-0.07	7.59
0.804	-0.57	8.58	0.03	7.69
0.894	-0.57	8.58	-0.02	7.64
0.984	-0.57	8.58	-0.07	7.59
1.074	-0.57	8.58	0.08	7.74
1.164	-0.58	8.58	-0.08	7.58
1.254	-0.58	8.58	0.03	7.69
1.344	-0.58	8.58	-0.02	7.64
1.434	-0.58	8.58	-0.07	7.59
1.524	-0.57	8.58	0.07	7.73
1.643	-0.59	8.56	-0.01	7.65
1.735	-0.58	8.57	-0.02	7.64
1.825	-0.58	8.57	0.07	7.73
1.915	-0.58	8.57	-0.09	7.57
2.005	-0.58	8.57	0.05	7.71
2.095	-0.58	8.57	-0.04	7.62
2.185	-0.59	8.56	-0.02	7.64
2.275	-0.59	8.56	0.07	7.73
2.364	-0.59	8.56	-0.09	7.57
2.454	-0.59	8.56	0.04	7.70
2.544	-0.59	8.56	-0.04	7.62
2.634	-0.60	8.56	-0.02	7.64
2.724	-0.60	8.55	0.07	7.73
2.814	-0.60	8.55	-0.09	7.57
2.904	-0.60	8.55	0.05	7.71
2.994	-0.60	8.55	-0.04	7.62
3.084	-0.54	8.61	-0.02	7.64
3.174	7.18	16.33	0.07	7.73
3.264	17.31	26.47	-0.09	7.57
3.395	22.62	31.77	-0.06	7.60
3.493	21.41	30.56	-0.01	7.65
3.583	15.72	24.87	-0.08	7.58
3.672	13.36	22.51	0.08	7.74
3.762	16.13	25.29	-0.07	7.59
3.852	16.63	25.78	0.03	7.69
3.942	15.78	24.93	-0.01	7.65
4.032	15.14	24.29	-0.07	7.59
4.122	13.45	22.60	0.08	7.74
4.217	11.59	20.74	-0.03	7.63
4.312	9.67	18.82	-0.07	7.59
4.402	9.58	18.74	0.03	7.69
4.492	16.10	25.25	-0.01	7.65
4.582	21.08	30.23	-0.06	7.60
4.678	23.18	32.34	-0.07	7.59
4.772	19.44	28.59	0.07	7.73
4.862	14.38	23.54	-0.07	7.59
4.983	15.52	24.67	-0.02	7.64
5.074	16.79	25.94	0.06	7.72
5.172	15.99	25.14	0.08	7.74
5.276	15.20	24.35	-0.03	7.63
5.372	13.49	22.65	0.07	7.73
5.462	11.60	20.75	-0.07	7.59
5.551	9.67	18.83	0.03	7.69
5.645	9.47	18.62	-0.07	7.59
5.741	16.59	25.74	-0.00	7.66
5.831	21.46	30.61	-0.08	7.58
5.921	23.13	32.29	0.07	7.73
6.011	19.61	28.76	-0.07	7.59
6.101	14.39	23.54	0.03	7.69
6.191	14.23	23.38	-0.00	7.66
6.281	16.88	26.04	-0.08	7.58
6.371	16.47	25.63	0.08	7.74
6.461	15.57	24.72	-0.07	7.59
6.551	14.69	23.84	0.02	7.68
6.671	12.22	21.37	0.08	7.74
6.762	10.39	19.54	-0.08	7.58
6.852	8.77	17.93	0.04	7.70
6.942	13.41	22.57	-0.03	7.63
7.032	19.44	28.59	-0.04	7.62
7.122	22.75	31.90	0.07	7.73
7.212	22.14	31.30	-0.08	7.58
7.302	16.48	25.63	0.05	7.71
7.392	13.48	22.64	-0.03	7.63
7.482	16.06	25.21	-0.04	7.62
7.572	16.86	26.01	0.07	7.73
7.662	15.95	25.10	-0.09	7.57
7.752	15.36	24.51	0.04	7.70
7.842	13.79	22.95	-0.03	7.63
7.931	11.90	21.05	-0.04	7.62
8.021	10.03	19.19	0.07	7.73
8.111	8.86	18.01	-0.08	7.58
8.201	14.67	23.82	0.04	7.70
8.340	22.19	31.35	-0.01	7.65
8.431	22.85	32.00	-0.05	7.61
8.521	17.88	27.03	0.07	7.73
8.611	13.69	22.84	-0.08	7.58
8.701	15.19	24.34	0.04	7.70
8.791	16.95	26.10	-0.03	7.63
8.881	16.19	25.34	-0.06	7.60
8.983	15.25	24.41	0.02	7.68
9.079	13.93	23.08	-0.08	7.58
9.175	11.91	21.07	-0.04	7.62
9.269	9.84	19.00	0.07	7.73
9.359	9.03	18.18	-0.06	7.60
9.449	15.05	24.20	0.02	7.68
9.539	20.61	29.76	0.02	7.68
9.629	23.17	32.32	-0.09	7.57
9.719	20.95	30.10	0.07	7.73
9.809	15.24	24.40	-0.06	7.60
9.899	13.74	22.90	0.02	7.68
9.993	16.66	25.81	-0.07	7.59
10.089	16.73	25.89	0.02	7.68
10.179	15.75	24.90	-0.09	7.57
10.269	14.91	24.07	0.07	7.73
10.359	13.03	22.19	-0.06	7.60
10.449	11.23	20.38	0.01	7.67
10.571	8.71	17.86	0.06	7.72
10.660	12.59	21.74	-0.08	7.58
10.750	18.82	27.97	0.03	7.69
10.852	22.83	31.98	0.07	7.73
10.948	21.60	30.75	0.02	7.68
11.038	16.00	25.16	0.03	7.69
11.128	13.41	22.57	-0.08	7.58
11.218	16.23	25.38	0.07	7.73
11.308	16.70	25.85	-0.05	7.61
11.398	15.79	24.94	0.01	7.67
11.488	15.23	24.38	0.03	7.69
11.578	13.51	22.66	-0.09	7.57
11.668	11.77	20.92	0.07	7.73
11.759	9.85	19.00	-0.07	7.59
11.849	9.24	18.39	0.03	7.69
11.939	15.38	24.54	-0.02	7.64
12.029	20.81	29.96	-0.07	7.59
12.119	22.92	32.08	0.07	7.73
12.209	20.46	29.61	-0.08	7.58
12.299	14.99	24.14	0.03	7.69
12.389	13.83	22.98	-0.02	7.64
12.479	16.64	25.80	-0.07	7.59
12.569	16.64	25.79	0.07	7.73
12.659	15.74	24.89	-0.07	7.59
12.749	15.09	24.25	0.03	7.69
12.839	13.36	22.51	-0.01	7.65
12.929	11.52	20.67	-0.07	7.59
13.019	9.45	18.60	0.07	7.73
13.108	9.93	19.08	-0.07	7.59
13.203	16.93	26.09	0.07	7.73
13.297	21.76	30.92	0.01	7.67
13.387	23.13	32.28	0.04	7.70
13.481	18.58	27.73	0.03	7.69
13.577	13.92	23.07	-0.09	7.57
13.667	15.12	24.27	0.07	7.73
13.763	16.95	26.11	-0.02	7.64
13.857	16.32	25.47	-0.05	7.61
13.947	15.58	24.73	0.01	7.67
14.037	14.16	23.31	0.04	7.70
14.127	12.34	21.49	-0.09	7.57
14.217	10.49	19.64	0.06	7.72
14.307	8.78	17.93	-0.05	7.61
14.396	13.29	22.45	0.01	7.67
14.486	19.36	28.51	0.04	7.70
14.576	22.59	31.74	-0.09	7.57
14.666	21.93	31.09	0.06	7.72
14.756	16.53	25.68	-0.05	7.61
14.846	13.52	22.67	0.01	7.67
14.936	15.93	25.09	0.05	7.71
15.026	16.82	25.97	-0.09	7.57
15.116	16.08	25.23	0.06	7.72
15.206	15.44	24.59	-0.05	7.61
15.296	13.83	22.99	0.01	7.67
15.386	12.03	21.18	0.04	7.70
15.476	10.21	19.37	-0.09	7.57
15.566	8.92	18.07	0.06	7.72
15.656	14.47	23.62	-0.05	7.61
15.747	20.18	29.33	0.03	7.69
15.837	22.97	32.13	-0.02	7.64
15.927	21.09	30.25	-0.07	7.59
16.017	15.53	24.69	0.07	7.73
16.119	13.80	22.96	0.03	7.69
16.215	16.74	25.90	0.06	7.72
16.305	16.58	25.74	-0.05	7.61
16.395	15.78	24.94	0.01	7.67
16.485	14.87	24.02	0.04	7.70
16.575	13.08	22.24	-0.09	7.57
16.665	11.20	20.36	0.07	7.73
16.755	9.19	18.34	-0.05	7.61
16.845	10.40	19.55	0.01	7.67
16.935	17.15	26.30	0.04	7.70
17.025	21.71	30.87	-0.09	7.57
17.115	22.98	32.14	0.07	7.73
17.205	18.79	27.94	-0.05	7.61
17.295	14.09	23.25	0.01	7.67
17.385	14.59	23.75	0.04	7.70
17.475	16.81	25.97	-0.09	7.57
17.565	16.38	25.54	0.07	7.73
17.655	15.78	24.94	-0.05	7.61
17.745	14.67	23.82	0.01	7.67
17.834	12.74	21.90	0.04	7.70
17.929	10.84	20.00	0.02	7.68
18.024	8.92	18.07	-0.08	7.58
18.114	12.42	21.58	0.06	7.72
18.210	19.24	28.40	-0.01	7.65
18.304	22.70	31.85	-0.05	7.61
18.394	21.98	31.13	0.01	7.67
18.484	16.57	25.72	0.03	7.69
18.574	13.65	22.80	-0.09	7.57
18.664	16.09	25.25	0.07	7.73
18.754	16.86	26.02	-0.06	7.60
18.844	16.16	25.32	0.01	7.67
18.934	15.48	24.63	0.03	7.69
19.024	13.90	23.06	-0.08	7.58
19.114	12.14	21.29	0.07	7.73
19.204	10.16	19.31	-0.06	7.60
19.294	8.99	18.15	0.02	7.68
19.384	14.62	23.77	0.03	7.69
19.474	20.29	29.44	-0.09	7.57
19.564	23.20	32.35	0.07	7.73
19.653	21.29	30.45	-0.06	7.60
19.743	15.75	24.90	0.02	7.68
19.833	13.72	22.87	0.03	7.69
19.923	16.46	25.61	-0.09	7.57
20.013	16.86	26.01	0.07	7.73
20.103	16.00	25.15	-0.06	7.60
20.193	15.32	24.47	0.02	7.68
20.283	13.61	22.76	0.03	7.69
20.373	11.88	21.04	-0.08	7.58
20.463	9.84	18.99	0.07	7.73
20.553	9.41	18.56	-0.06	7.60
20.643	15.98	25.13	0.02	7.68
20.733	21.08	30.23	0.02	7.68
20.823	23.24	32.40	-0.08	7.58
20.914	20.26	29.42	0.07	7.73
21.004	15.00	24.15	-0.08	7.58
21.094	14.20	23.35	0.04	7.70
21.189	16.92	26.08	-0.09	7.57
21.283	16.63	25.79	0.02	7.68
21.376	15.62	24.78	0.02	7.68
21.472	14.74	23.89	-0.08	7.58
21.562	12.72	21.88	0.07	7.73
21.652	10.95	20.10	-0.06	7.60
21.742	9.01	18.16	0.02	7.68
21.832	11.74	20.90	0.02	7.68
21.922	18.34	27.50	-0.08	7.58
22.012	22.42	31.57	0.07	7.73
22.102	22.86	32.01	-0.06	7.60
22.192	17.85	27.00	0.02	7.68
22.286	13.80	22.95	-0.08	7.58
22.382	15.74	24.89	0.01	7.67
22.472	16.98	26.13	-0.08	7.58
22.562	16.29	25.44	0.07	7.73
22.652	15.53	24.69	-0.06	7.60
22.750	13.76	22.92	-0.04	7.62
22.846	11.90	21.05	0.07	7.73
22.942	9.91	19.06	0.02	7.68
23.032	9.25	18.40	0.00	7.66
23.121	15.39	24.55	-0.08	7.58
23.211	20.71	29.87	0.08	7.74
23.301	23.11	32.27	-0.07	7.59
23.391	20.75	29.90	0.03	7.69
23.481	15.24	24.39	-0.01	7.65
23.571	13.87	23.03	-0.07	7.59
23.661	16.67	25.82	0.08	7.74
23.751	16.72	25.87	-0.07	7.59
23.841	15.95	25.10	0.03	7.69
23.931	15.06	24.21	-0.01	7.65
24.021	13.25	22.41	-0.07	7.59
24.111	11.48	20.64	0.07	7.73
24.201	9.38	18.54	-0.07	7.59
24.291	9.81	18.96	0.03	7.69
24.381	16.61	25.77	-0.02	7.64
24.471	21.47	30.62	-0.07	7.59
24.561	23.21	32.37	0.07	7.73
24.651	19.56	28.71	-0.08	7.58
24.741	14.55	23.70	0.03	7.69
24.831	14.39	23.55	-0.02	7.64
24.920	16.83	25.99	-0.06	7.60
25.010	16.60	25.76	0.07	7.73
25.100	15.69	24.84	-0.08	7.58
25.190	14.91	24.06	0.03	7.69
25.280	12.99	22.15	-0.03	7.63
25.370	11.18	20.33	-0.05	7.61
25.460	9.12	18.27	0.07	7.73
25.550	10.95	20.11	-0.08	7.58
25.640	17.73	26.89	0.04	7.70
25.730	22.13	31.28	-0.03	7.63
25.820	23.04	32.19	-0.04	7.62
25.910	18.44	27.59	0.07	7.73
26.003	13.99	23.14	-0.04	7.62
26.100	15.40	24.55	-0.08	7.58
26.190	17.07	26.22	0.04	7.70
26.280	16.36	25.52	-0.04	7.62
26.370	15.60	24.76	-0.03	7.63
26.460	14.36	23.52	0.07	7.73
26.550	12.38	21.53	-0.08	7.58
26.656	10.19	19.34	0.05	7.71
26.749	9.07	18.23	-0.08	7.58
26.839	14.74	23.89	0.05	7.71
26.929	20.28	29.43	-0.04	7.62
27.019	23.03	32.18	-0.02	7.64
27.109	21.38	30.53	0.06	7.72
27.205	15.54	24.69	0.04	7.70
27.299	13.96	23.11	-0.09	7.57
27.389	16.73	25.88	0.06	7.72
27.479	16.72	25.88	-0.04	7.62
27.569	15.98	25.14	-0.00	7.66
27.659	15.28	24.43	0.06	7.72
27.749	13.41	22.57	-0.09	7.57
27.839	11.53	20.68	0.06	7.72
27.929	9.57	18.72	-0.04	7.62
28.019	9.90	19.05	0.00	7.66
28.109	16.66	25.81	0.05	7.71
28.199	21.59	30.74	-0.08	7.58
28.289	23.24	32.39	0.06	7.72
28.378	19.64	28.79	-0.05	7.61
28.468	14.53	23.69	0.01	7.67
28.558	14.57	23.72	0.04	7.70
28.648	17.02	26.18	-0.09	7.57
28.738	16.65	25.80	0.07	7.73
28.828	15.73	24.88	-0.06	7.60
28.918	15.00	24.15	0.02	7.68
29.008	13.19	22.34	0.02	7.68
29.098	11.29	20.44	-0.09	7.57
29.188	9.26	18.41	0.07	7.73
29.278	11.09	20.24	-0.06	7.60
29.368	17.90	27.05	0.02	7.68
29.458	22.13	31.28	0.02	7.68
29.548	23.08	32.24	-0.09	7.57
29.638	18.53	27.68	0.07	7.73
29.728	14.15	23.30	-0.06	7.60
29.818	15.11	24.27	0.02	7.68
29.908	17.09	26.24	0.00	7.66
29.998	16.51	25.66	-0.08	7.58
30.087	15.77	24.92	0.07	7.73
30.177	14.69	23.84	-0.07	7.59
30.267	12.87	22.03	0.02	7.68
30.357	11.01	20.16	-0.01	7.65
30.447	8.98	18.13	-0.07	7.59
30.537	12.43	21.58	0.08	7.74
30.627	18.92	28.08	-0.08	7.58
30.717	22.60	31.75	0.03	7.69
30.807	22.76	31.92	-0.02	7.64
30.897	17.64	26.80	-0.06	7.60
30.987	13.86	23.01	0.07	7.73
31.115	16.84	25.99	-0.01	7.65
31.207	16.84	25.99	-0.03	7.63
31.298	15.90	25.06	-0.00	7.66
31.388	15.31	24.47	0.05	7.71
31.478	13.39	22.54	-0.09	7.57
31.568	11.66	20.81	0.06	7.72
31.658	9.74	18.89	-0.05	7.61
31.762	11.09	20.24	-0.08	7.58
31.857	18.09	27.24	-0.03	7.63
31.950	22.54	31.69	0.04	7.70
32.046	22.76	31.91	-0.04	7.62
32.136	17.71	26.87	0.07	7.73
32.226	13.77	22.92	-0.08	7.58
32.316	15.65	24.80	0.05	7.71
32.406	17.09	26.25	-0.04	7.62
32.496	16.41	25.56	-0.03	7.63
32.586	15.62	24.78	0.07	7.73
32.676	14.53	23.69	-0.09	7.57
32.766	12.60	21.75	0.05	7.71
32.856	10.71	19.86	-0.04	7.62
32.946	8.98	18.13	-0.01	7.65
33.036	13.57	22.73	0.07	7.73
33.126	19.73	28.88	-0.09	7.57
33.216	23.10	32.25	0.06	7.72
33.306	22.41	31.56	-0.04	7.62
33.396	16.89	26.04	-0.01	7.65
33.486	13.91	23.06	0.06	7.72
33.576	16.42	25.57	-0.09	7.57
33.665	17.11	26.26	0.06	7.72
33.755	16.31	25.47	-0.04	7.62
33.845	15.56	24.71	0.00	7.66
33.935	14.00	23.16	0.06	7.72
34.025	12.15	21.30	-0.09	7.57
34.115	10.29	19.45	0.06	7.72
34.205	9.13	18.28	-0.04	7.62
34.295	14.93	24.08	0.01	7.67
34.385	20.53	29.69	0.05	7.71
34.475	23.22	32.38	-0.09	7.57
34.565	21.35	30.50	0.07	7.73
34.655	16.00	25.15	-0.05	7.61
34.745	14.06	23.21	0.01	7.67
34.835	16.74	25.89	0.03	7.69
34.925	16.91	26.07	-0.09	7.57
35.015	16.08	25.24	0.07	7.73
35.105	15.45	24.61	-0.05	7.61
35.195	13.81	22.97	0.02	7.68
35.285	11.93	21.09	0.03	7.69
35.375	9.93	19.09	-0.09	7.57
35.464	9.64	18.80	0.07	7.73
35.559	16.48	25.64	-0.07	7.59
35.654	21.76	30.92	-0.06	7.60
35.744	23.39	32.55	0.02	7.68
35.834	19.78	28.93	0.02	7.68
35.924	14.76	23.92	-0.09	7.57
36.014	14.63	23.78	0.07	7.73
36.104	17.16	26.31	-0.06	7.60
36.194	16.77	25.92	0.02	7.68
36.290	15.72	24.87	-0.09	7.57
36.384	14.91	24.07	0.01	7.67
36.475	12.87	22.03	-0.04	7.62
36.565	11.05	20.21	0.07	7.73
36.655	9.03	18.19	-0.09	7.57
36.745	12.08	21.24	0.04	7.70
36.835	18.66	27.81	-0.04	7.62
36.925	22.62	31.78	-0.04	7.62
37.018	22.83	31.99	-0.03	7.63
37.114	17.36	26.51	0.08	7.74
37.203	13.84	23.00	-0.06	7.60
37.313	16.51	25.66	0.07	7.73
37.403	16.87	26.02	-0.07	7.59
37.493	16.09	25.25	0.03	7.69
37.583	15.42	24.58	0.00	7.66
37.673	13.74	22.90	-0.08	7.58
37.763	11.96	21.11	0.08	7.74
37.853	10.01	19.17	-0.07	7.59
37.943	9.26	18.42	0.03	7.69
38.033	15.72	24.87	-0.01	7.65
38.123	21.06	30.21	-0.07	7.59
38.213	23.28	32.43	0.08	7.74
38.303	20.72	29.88	-0.07	7.59
38.393	15.41	24.56	0.02	7.68
38.483	14.10	23.26	-0.01	7.65
38.573	16.91	26.06	-0.07	7.59
38.663	16.76	25.91	0.08	7.74
38.753	15.92	25.07	-0.07	7.59
38.843	15.20	24.35	0.03	7.69
38.932	13.48	22.64	-0.01	7.65
39.022	11.68	20.84	-0.08	7.58
39.112	9.68	18.84	0.08	7.74
39.202	10.12	19.27	-0.07	7.59
39.292	16.84	25.99	0.03	7.69
39.382	21.68	30.83	-0.01	7.65
39.472	23.52	32.67	-0.07	7.59
39.562	19.75	28.90	0.08	7.74
39.652	14.66	23.82	-0.07	7.59
39.742	14.60	23.76	0.03	7.69
39.832	17.11	26.26	-0.01	7.65
39.922	16.79	25.94	-0.08	7.58
40.016	15.76	24.92	-0.04	7.62
40.112	14.87	24.03	0.08	7.74
40.202	12.99	22.14	-0.07	7.59
40.292	10.99	20.15	0.03	7.69
40.382	9.11	18.26	-0.01	7.65
40.472	11.98	21.13	-0.08	7.58
40.562	18.51	27.66	0.08	7.74
40.652	22.50	31.65	-0.07	7.59
40.741	22.96	32.11	0.03	7.69
40.837	17.55	26.70	-0.09	7.57
40.931	13.82	22.97	-0.01	7.65
41.021	15.99	25.14	-0.08	7.58
41.111	17.05	26.20	0.08	7.74
41.201	16.20	25.35	-0.07	7.59
41.291	15.59	24.75	0.03	7.69
41.381	14.21	23.36	-0.00	7.66
41.471	12.35	21.50	-0.08	7.58
41.561	10.35	19.50	0.08	7.74
41.652	8.92	18.07	-0.09	7.57
41.747	14.65	23.80	0.02	7.68
41.841	20.61	29.77	0.03	7.69
41.931	23.24	32.40	0.00	7.66
42.021	21.32	30.47	-0.08	7.58
42.111	15.79	24.94	0.07	7.73
42.201	13.91	23.06	-0.07	7.59
42.291	16.74	25.89	0.03	7.69
42.381	16.91	26.06	0.01	7.67
42.470	16.08	25.23	-0.08	7.58
42.564	15.32	24.48	-0.00	7.66
42.660	13.40	22.55	0.07	7.73
42.750	11.59	20.74	-0.06	7.60
42.840	9.61	18.76	0.02	7.68
42.930	10.07	19.23	0.01	7.67
43.020	16.83	25.98	-0.09	7.57
43.110	21.66	30.81	0.08	7.74
43.200	23.39	32.55	-0.06	7.60
43.290	19.67	28.82	0.02	7.68
43.380	14.58	23.74	0.02	7.68
43.470	14.57	23.73	-0.09	7.57
43.560	16.99	26.15	0.07	7.73
43.650	16.62	25.77	-0.06	7.60
43.740	15.82	24.97	0.02	7.68
43.830	14.87	24.02	0.02	7.68
43.920	13.02	22.17	-0.09	7.57
44.010	11.13	20.29	0.07	7.73
44.100	9.11	18.26	-0.06	7.60
44.189	11.20	20.35	0.02	7.68
44.279	17.95	27.10	0.03	7.69
44.374	22.28	31.43	0.03	7.69
44.469	22.81	31.96	-0.09	7.57
44.559	17.79	26.95	0.07	7.73
44.649	13.76	22.91	-0.06	7.60
44.739	15.51	24.66	0.02	7.68
44.829	16.95	26.10	0.03	7.69
44.919	16.30	25.45	-0.09	7.57
45.009	15.53	24.68	0.07	7.73
45.099	14.28	23.44	-0.06	7.60
45.189	12.38	21.54	0.01	7.67
45.285	10.35	19.50	-0.09	7.57
45.379	8.83	17.98	0.04	7.70
45.469	14.03	23.18	-0.09	7.57
45.559	19.96	29.12	0.07	7.73
45.649	23.04	32.20	-0.05	7.61
45.739	21.74	30.90	0.01	7.67
45.829	16.22	25.38	0.04	7.70
45.919	13.61	22.76	-0.09	7.57
46.008	16.31	25.46	0.06	7.72
46.098	16.98	26.13	-0.04	7.62
46.188	16.22	25.37	0.00	7.66
46.278	15.46	24.62	0.05	7.71
46.368	13.71	22.86	-0.09	7.57
46.458	11.86	21.02	0.06	7.72
46.548	9.97	19.12	-0.04	7.62
46.638	9.27	18.42	-0.00	7.66
46.728	15.36	24.51	0.06	7.72
46.819	20.73	29.88	-0.09	7.57
46.909	23.14	32.29	0.08	7.74
46.999	20.84	29.99	-0.07	7.59
47.089	15.28	24.43	0.02	7.68
47.179	13.99	23.14	0.01	7.67
47.269	16.70	25.86	-0.09	7.57
47.359	16.72	25.87	0.07	7.73
47.449	15.92	25.08	-0.06	7.60
47.539	15.16	24.32	0.02	7.68
47.629	13.32	22.47	0.03	7.69
47.719	11.42	20.57	-0.09	7.57
47.821	9.26	18.41	-0.02	7.64
47.917	11.15	20.30	-0.09	7.57
48.007	17.92	27.07	0.04	7.70
48.097	22.20	31.35	-0.03	7.63
48.187	23.01	32.16	-0.04	7.62
48.277	18.44	27.59	0.07	7.73
48.367	13.84	22.99	-0.09	7.57
48.457	15.08	24.23	0.04	7.70
48.547	17.01	26.17	-0.03	7.63
48.637	16.44	25.60	-0.05	7.61
48.731	15.63	24.78	-0.04	7.62
48.827	14.24	23.39	0.07	7.73
48.917	12.41	21.56	-0.08	7.58
49.007	10.42	19.57	0.03	7.69
49.097	8.72	17.88	-0.03	7.63
49.187	13.17	22.32	-0.06	7.60
49.277	19.50	28.65	0.07	7.73
49.367	22.73	31.88	-0.08	7.58
49.456	22.12	31.28	0.03	7.69
49.546	16.66	25.82	-0.02	7.64
49.636	13.53	22.68	-0.07	7.59
49.771	16.88	26.04	-0.00	7.66
49.866	16.54	25.70	-0.07	7.59
49.956	15.78	24.93	0.02	7.68
50.046	14.66	23.81	-0.01	7.65
50.136	12.76	21.91	-0.07	7.59
50.226	10.96	20.11	0.07	7.73
50.316	8.98	18.13	-0.07	7.59
50.406	11.43	20.58	0.02	7.68
50.496	18.07	27.22	0.00	7.66
50.586	22.12	31.28	-0.08	7.58
50.676	22.91	32.06	0.08	7.74
50.766	18.14	27.29	-0.07	7.59
50.856	13.88	23.03	0.02	7.68
50.946	15.24	24.39	0.01	7.67
51.036	16.97	26.13	-0.09	7.57
51.126	16.41	25.57	0.07	7.73
51.220	15.57	24.72	-0.06	7.60
51.315	14.13	23.29	-0.06	7.60
51.405	12.25	21.41	0.02	7.68
51.495	10.40	19.55	0.02	7.68
51.585	8.78	17.93	-0.09	7.57
51.675	13.54	22.69	0.07	7.73
51.765	19.66	28.81	-0.06	7.60
51.858	23.02	32.17	0.06	7.72
51.948	21.94	31.10	-0.06	7.60
52.045	15.96	25.11	0.03	7.69
52.135	13.63	22.78	-0.09	7.57
52.225	16.26	25.42	0.07	7.73
52.315	16.86	26.02	-0.05	7.61
52.405	16.13	25.28	0.01	7.67
52.495	15.33	24.48	0.04	7.70
52.585	13.66	22.81	-0.09	7.57
52.675	11.77	20.92	0.07	7.73
52.765	9.86	19.02	-0.05	7.61
52.866	9.81	18.97	-0.08	7.58
52.961	16.82	25.97	0.05	7.71
53.054	21.67	30.83	0.01	7.67
53.147	23.13	32.29	-0.04	7.62
53.244	18.72	27.88	0.05	7.71
53.334	13.99	23.15	-0.09	7.57
53.424	15.03	24.18	0.06	7.72
53.514	16.97	26.12	-0.04	7.62
53.604	16.50	25.65	-0.00	7.66
53.694	15.67	24.83	0.06	7.72
53.784	14.51	23.67	-0.09	7.57
53.874	12.70	21.85	0.06	7.72
53.964	10.82	19.98	-0.04	7.62
54.054	8.92	18.08	-0.01	7.65
54.144	12.23	21.38	0.07	7.73
54.234	18.73	27.88	-0.09	7.57
54.329	22.62	31.77	-0.02	7.64
54.424	22.26	31.42	0.05	7.71
54.514	16.97	26.12	-0.04	7.62
54.604	13.57	22.73	-0.01	7.65
54.694	16.07	25.22	0.06	7.72
54.783	16.94	26.09	-0.09	7.57
54.873	16.24	25.39	0.05	7.71
54.963	15.61	24.77	-0.04	7.62
55.053	13.97	23.13	-0.03	7.63
55.143	12.05	21.20	0.07	7.73
55.233	10.21	19.37	-0.09	7.57
55.323	8.95	18.10	0.05	7.71
55.413	14.33	23.48	-0.04	7.62
55.503	20.08	29.23	-0.03	7.63
55.593	22.97	32.12	0.07	7.73
55.683	21.59	30.74	-0.09	7.57
55.773	15.99	25.14	0.05	7.71
55.863	13.66	22.81	-0.03	7.63
55.953	16.43	25.59	-0.04	7.62
56.043	16.84	26.00	0.07	7.73
56.133	16.11	25.26	-0.09	7.57
56.223	15.46	24.62	0.04	7.70
56.313	13.63	22.78	-0.03	7.63
56.403	11.83	20.98	-0.05	7.61
56.492	9.81	18.96	0.07	7.73
56.582	9.26	18.42	-0.09	7.57
56.672	15.72	24.87	0.04	7.70
56.762	20.92	30.08	-0.03	7.63
56.852	23.16	32.31	-0.06	7.60
56.942	20.59	29.75	0.07	7.73
57.035	15.00	24.15	-0.09	7.57
57.125	14.08	23.24	0.08	7.74
57.222	16.88	26.03	0.03	7.69
57.319	16.53	25.68	-0.05	7.61
57.412	15.71	24.87	-0.02	7.64
57.502	14.73	23.88	-0.07	7.59
57.592	12.81	21.96	0.07	7.73
57.682	10.91	20.07	-0.08	7.58
57.772	8.99	18.15	0.03	7.69
57.862	11.41	20.56	-0.02	7.64
57.952	18.14	27.30	-0.07	7.59
58.042	22.25	31.41	0.08	7.74
58.132	22.89	32.04	-0.08	7.58
58.221	18.12	27.27	0.02	7.68
58.311	13.89	23.04	-0.01	7.65
58.404	15.21	24.36	0.02	7.68
58.501	17.01	26.17	-0.08	7.58
58.591	16.42	25.58	0.08	7.74
58.681	15.68	24.83	-0.07	7.59
58.777	13.96	23.12	0.05	7.71
58.871	12.07	21.22	0.02	7.68
58.961	10.03	19.18	0.01	7.67
59.051	8.81	17.96	-0.09	7.57
59.141	14.36	23.51	0.07	7.73
59.231	20.11	29.26	-0.06	7.60
59.321	22.93	32.09	0.02	7.68
59.411	21.44	30.60	0.01	7.67
59.501	15.91	25.06	-0.09	7.57
59.591	13.58	22.73	0.07	7.73
59.681	16.37	25.52	-0.06	7.60
59.771	16.87	26.02	0.02	7.68
59.861	16.02	25.17	0.02	7.68
59.951	15.39	24.55	-0.09	7.57
60.040	13.49	22.65	0.07	7.73
60.130	11.67	20.82	-0.06	7.60
60.220	9.74	18.90	0.02	7.68
60.310	9.20	18.35	0.03	7.69
60.400	15.61	24.76	-0.09	7.57
60.490	20.95	30.10	0.07	7.73
60.580	23.13	32.29	-0.06	7.60
60.670	20.53	29.69	0.01	7.67
60.760	15.09	24.24	0.04	7.70
60.850	13.92	23.07	-0.09	7.57
60.940	16.74	25.89	0.06	7.72
61.030	16.74	25.89	-0.05	7.61
61.120	15.99	25.15	0.01	7.67
61.210	15.08	24.23	0.04	7.70
61.300	13.12	22.28	-0.09	7.57
61.390	11.34	20.49	0.06	7.72
61.480	9.36	18.51	-0.04	7.62
61.570	10.02	19.18	0.00	7.66
61.660	16.85	26.00	0.06	7.72
61.749	21.72	30.87	-0.09	7.57
61.846	23.13	32.28	-0.05	7.61
61.939	18.84	27.99	0.06	7.72
62.029	14.07	23.22	-0.04	7.62
62.119	14.86	24.02	-0.01	7.65
62.212	16.92	26.08	-0.03	7.63
62.305	16.44	25.59	0.05	7.71
62.399	15.81	24.96	-0.09	7.57
62.489	14.32	23.47	0.05	7.71
62.579	12.46	21.62	-0.04	7.62
62.669	10.60	19.76	-0.02	7.64
62.759	8.72	17.87	0.07	7.73
62.849	12.77	21.93	-0.09	7.57
62.939	19.14	28.30	0.05	7.71
63.029	22.69	31.84	-0.04	7.62
63.119	22.38	31.53	-0.03	7.63
63.209	17.13	26.28	0.07	7.73
63.299	13.63	22.78	-0.09	7.57
63.394	16.10	25.26	-0.00	7.66
63.488	16.93	26.09	0.05	7.71
63.578	16.15	25.30	-0.04	7.62
63.671	15.45	24.60	0.03	7.69
63.768	13.59	22.74	-0.04	7.62
63.858	11.77	20.93	0.07	7.73
63.948	9.72	18.87	-0.09	7.57
64.038	9.30	18.45	0.04	7.70
64.128	15.72	24.87	-0.03	7.63
64.218	20.92	30.08	-0.05	7.61
64.308	23.37	32.53	0.08	7.74
64.398	20.55	29.70	-0.08	7.58
64.488	15.18	24.33	0.04	7.70
64.578	14.09	23.24	-0.03	7.63
64.668	16.89	26.04	-0.06	7.60
64.758	16.81	25.97	0.07	7.73
64.848	16.00	25.15	-0.08	7.58
64.938	15.22	24.38	0.03	7.69
65.028	13.36	22.51	-0.02	7.64
65.118	11.42	20.58	-0.07	7.59
65.207	9.41	18.56	0.08	7.74
65.297	10.20	19.35	-0.07	7.59
65.387	17.06	26.22	0.03	7.69
65.477	21.77	30.93	-0.01	7.65
65.567	23.38	32.53	-0.08	7.58
65.657	19.51	28.66	0.08	7.74
65.747	14.46	23.62	-0.07	7.59
65.837	14.61	23.77	0.02	7.68
65.927	16.98	26.13	-0.00	7.66
66.017	16.53	25.68	-0.09	7.57
66.107	15.82	24.97	0.08	7.74
66.204	14.70	23.85	0.03	7.69
66.297	12.78	21.93	-0.07	7.59
66.387	10.86	20.01	0.02	7.68
66.477	9.01	18.17	0.01	7.67
66.567	12.21	21.37	-0.09	7.57
66.657	18.82	27.97	0.07	7.73
66.747	22.75	31.90	-0.06	7.60
66.837	22.92	32.07	0.02	7.68
66.926	17.79	26.94	0.03	7.69
67.016	13.88	23.03	-0.09	7.57
67.106	15.69	24.85	0.07	7.73
67.196	17.16	26.31	-0.06	7.60
67.286	16.45	25.60	0.01	7.67
67.379	15.69	24.84	-0.04	7.62
67.476	14.13	23.28	0.04	7.70
67.566	12.16	21.31	-0.09	7.57
67.656	10.27	19.42	0.07	7.73
67.746	8.96	18.11	-0.05	7.61
67.841	14.67	23.83	0.07	7.73
67.936	20.67	29.82	0.01	7.67
68.026	23.22	32.38	0.05	7.71
68.116	21.22	30.38	-0.09	7.57
68.206	15.54	24.70	0.06	7.72
68.296	13.80	22.95	-0.04	7.62
68.386	16.67	25.83	-0.00	7.66
68.476	16.80	25.95	0.06	7.72
68.566	16.07	25.22	-0.09	7.57
68.656	15.40	24.56	0.06	7.72
68.745	13.54	22.69	-0.04	7.62
68.835	11.69	20.84	-0.01	7.65
68.928	9.64	18.79	-0.04	7.62
69.025	10.27	19.43	0.07	7.73
69.115	17.15	26.30	-0.09	7.57
69.205	21.82	30.98	0.05	7.71
69.295	23.36	32.51	-0.04	7.62
69.385	19.54	28.69	-0.02	7.64
69.475	14.47	23.63	0.07	7.73
69.565	14.58	23.73	-0.09	7.57
69.655	16.99	26.15	0.05	7.71
69.745	16.62	25.77	-0.04	7.62
69.835	15.71	24.86	-0.03	7.63
69.925	14.95	24.10	0.07	7.73
70.015	13.02	22.17	-0.09	7.57
70.105	11.08	20.23	0.05	7.71
70.195	9.12	18.28	-0.04	7.62
70.285	11.40	20.56	-0.03	7.63
70.375	18.16	27.32	0.07	7.73
70.464	22.42	31.57	-0.08	7.58
70.561	22.90	32.05	-0.04	7.62
70.654	17.72	26.88	0.04	7.70
70.744	13.80	22.96	-0.03	7.63
70.834	15.60	24.75	-0.04	7.62
70.924	17.19	26.35	0.07	7.73
71.014	16.51	25.66	-0.09	7.57
71.104	15.67	24.82	0.04	7.70
71.194	14.42	23.58	-0.03	7.63
71.284	12.49	21.65	-0.05	7.61
71.374	10.55	19.70	0.07	7.73
71.464	8.93	18.09	-0.08	7.58
71.554	13.63	22.78	0.04	7.70
71.644	19.70	28.85	-0.03	7.63
71.734	22.94	32.09	-0.06	7.60
71.824	22.34	31.49	0.07	7.73
71.914	16.83	25.99	-0.08	7.58
72.004	13.73	22.89	0.03	7.69
72.094	16.26	25.42	-0.03	7.63
72.183	17.10	26.25	-0.06	7.60
72.318	15.85	25.00	-0.02	7.64
72.413	14.90	24.05	-0.08	7.58
72.503	12.94	22.09	0.03	7.69
72.596	10.98	20.13	-0.06	7.60
72.687	9.07	18.22	0.03	7.69
72.783	12.47	21.62	-0.07	7.59
72.873	19.16	28.32	0.08	7.74
72.963	22.79	31.94	-0.08	7.58
73.053	22.75	31.90	0.03	7.69
73.143	17.60	26.75	-0.02	7.64
73.233	13.71	22.86	-0.07	7.59
73.323	15.94	25.09	0.07	7.73
73.413	17.15	26.31	-0.07	7.59
73.503	16.38	25.53	0.03	7.69
73.593	15.61	24.76	-0.01	7.65
73.683	14.34	23.49	-0.07	7.59
73.773	12.45	21.61	0.08	7.74
73.863	10.46	19.61	-0.07	7.59
73.952	8.94	18.10	0.03	7.69
74.042	13.79	22.95	-0.01	7.65
74.132	19.96	29.11	-0.07	7.59
74.225	23.24	32.39	0.01	7.67
74.322	21.62	30.78	0.08	7.74
74.412	16.00	25.15	-0.07	7.59
74.502	13.80	22.95	0.03	7.69
74.592	16.54	25.69	-0.01	7.65
74.682	16.92	26.07	-0.08	7.58
74.772	16.21	25.37	0.07	7.73
74.862	15.46	24.62	-0.07	7.59
74.964	13.30	22.45	-0.09	7.57
75.059	11.38	20.54	-0.01	7.65
75.152	9.37	18.53	0.03	7.69
75.242	10.54	19.69	-0.00	7.66
75.332	17.33	26.48	-0.08	7.58
75.422	21.84	31.00	0.08	7.74
75.512	23.29	32.44	-0.07	7.59
75.602	19.30	28.46	0.03	7.69
75.692	14.38	23.53	-0.01	7.65
75.781	14.76	23.91	-0.08	7.58
75.871	17.06	26.22	0.08	7.74
75.961	16.68	25.84	-0.07	7.59
76.051	15.77	24.92	0.03	7.69
76.141	14.84	23.99	-0.00	7.66
76.231	12.91	22.06	-0.08	7.58
76.321	11.07	20.23	0.07	7.73
76.411	9.14	18.30	-0.07	7.59
76.501	11.68	20.83	0.02	7.68
76.591	18.36	27.52	-0.00	7.66
76.681	22.63	31.78	-0.08	7.58
76.776	22.87	32.02	-0.04	7.62
76.871	17.56	26.72	0.08	7.74
76.961	13.75	22.90	-0.07	7.59
77.051	15.81	24.96	0.02	7.68
77.141	17.15	26.30	-0.01	7.65
77.231	16.48	25.63	-0.08	7.58
77.321	15.63	24.78	0.08	7.74
77.411	14.39	23.54	-0.07	7.59
77.500	12.37	21.52	0.02	7.68
77.590	10.49	19.65	-0.01	7.65
77.680	8.89	18.04	-0.08	7.58
77.773	14.01	23.16	0.03	7.69
77.864	20.07	29.23	-0.08	7.58
77.960	23.37	32.52	-0.07	7.59
78.050	21.67	30.83	0.03	7.69
78.140	16.00	25.16	-0.01	7.65
78.230	13.81	22.96	-0.08	7.58
78.320	16.57	25.72	0.07	7.73
78.410	16.96	26.12	-0.07	7.59
78.500	16.13	25.29	0.02	7.68
78.590	15.48	24.63	-0.01	7.65
78.680	13.62	22.78	-0.07	7.59
78.770	11.78	20.93	0.08	7.74
78.860	9.84	19.00	-0.08	7.58
78.950	9.37	18.53	0.03	7.69
79.040	15.93	25.08	-0.01	7.65
79.130	21.16	30.31	-0.07	7.59
79.220	23.22	32.37	0.07	7.73
79.309	20.50	29.65	-0.07	7.59
79.406	14.75	23.90	-0.03	7.63
79.502	14.54	23.69	0.07	7.73
79.599	17.10	26.26	0.03	7.69
79.689	16.65	25.80	-0.01	7.65
79.779	15.73	24.89	-0.07	7.59
79.869	14.82	23.97	0.07	7.73
79.959	12.85	22.00	-0.08	7.58
80.049	10.95	20.10	0.02	7.68
80.139	9.03	18.19	-0.02	7.64
80.229	11.63	20.79	-0.07	7.59
80.319	18.26	27.42	0.08	7.74
80.409	22.36	31.51	-0.08	7.58
80.499	23.06	32.21	0.03	7.69
80.589	18.14	27.29	-0.02	7.64
80.679	13.87	23.02	-0.07	7.59
80.769	15.44	24.60	0.08	7.74
80.859	17.10	26.25	-0.08	7.58
80.949	16.49	25.65	0.03	7.69
81.038	15.78	24.94	-0.02	7.64
81.128	14.12	23.28	-0.06	7.60
81.229	1.53	10.69	-0.05	7.61
81.325	-3.41	5.75	-0.08	7.58
81.418	-2.17	6.98	0.07	7.73
81.508	0.42	9.58	-0.08	7.58
81.598	0.87	10.02	0.03	7.69
81.688	-0.62	8.54	-0.02	7.64
81.778	-1.42	7.74	-0.06	7.60
81.868	-0.84	8.31	0.07	7.73
81.958	-0.14	9.02	-0.08	7.58
82.048	-0.19	8.97	0.03	7.69
82.138	-0.70	8.45	-0.03	7.63
82.228	-0.91	8.25	-0.06	7.60
82.318	-0.67	8.48	0.07	7.73
82.408	-0.46	8.69	-0.08	7.58
82.498	-0.53	8.62	0.03	7.69
82.588	-0.72	8.44	-0.03	7.63
82.678	-0.76	8.39	-0.06	7.60
82.767	-0.66	8.49	0.07	7.73
82.857	-0.59	8.56	-0.09	7.57
82.953	-0.64	8.51	-0.00	7.66
83.047	-0.73	8.43	0.04	7.70
83.137	-0.72	8.43	-0.03	7.63
83.227	-0.66	8.49	-0.05	7.61
83.317	-0.66	8.50	0.07	7.73
83.407	-0.68	8.47	-0.09	7.57
83.497	-0.71	8.44	0.04	7.70
83.587	-0.70	8.45	-0.03	7.63
83.677	-0.67	8.48	-0.05	7.61
