Tempo(s)    P0(KPa) P0+Coluna(KPa)  P1(KPa) P1+Coluna(KPa)
0.003	-2.22	-2.22	-2.22	-2.22
0.030	-2.22	-2.22	-2.22	-2.22
0.060	10.90	10.90	-2.22	-2.22
0.090	10.90	10.90	7.51	7.51
0.120	10.90	10.90	7.51	7.51
0.149	10.90	10.90	7.51	7.51
0.179	10.90	10.90	7.57	7.57
0.209	10.90	10.90	7.57	7.57
0.239	10.90	10.90	7.57	7.57
0.268	10.90	10.90	7.53	7.53
0.298	10.90	10.90	7.53	7.53
0.328	10.90	10.90	7.53	7.53
0.358	10.90	10.90	7.64	7.64
0.388	10.90	10.90	7.64	7.64
0.417	10.91	10.91	7.64	7.64
0.447	10.91	10.91	7.52	7.52
0.477	10.91	10.91	7.52	7.52
0.507	10.91	10.91	7.52	7.52
0.536	10.91	10.91	7.62	7.62
0.566	10.91	10.91	7.62	7.62
0.596	10.91	10.91	7.62	7.62
0.626	-0.00	10.91	-0.05	7.57
0.655	-0.00	10.91	-0.05	7.57
0.685	-0.00	10.91	-0.05	7.57
0.715	-0.00	10.91	-0.08	7.54
0.744	-0.00	10.91	-0.08	7.54
0.774	-0.00	10.91	-0.08	7.54
0.804	-0.00	10.91	0.03	7.64
0.834	-0.00	10.91	0.03	7.64
0.864	0.00	10.91	0.03	7.64
0.893	0.00	10.91	-0.09	7.53
0.923	0.00	10.91	-0.09	7.53
0.953	0.01	10.92	-0.09	7.53
0.983	0.01	10.92	0.00	7.62
1.012	0.01	10.92	0.00	7.62
1.042	0.01	10.92	0.00	7.62
1.072	0.01	10.92	-0.05	7.56
1.102	0.01	10.92	-0.05	7.56
1.131	0.01	10.92	-0.05	7.56
1.161	0.01	10.92	-0.08	7.54
1.191	0.01	10.92	-0.08	7.54
1.221	0.01	10.92	-0.08	7.54
1.251	0.01	10.92	0.02	7.64
1.280	0.01	10.92	0.02	7.64
1.310	0.01	10.92	0.02	7.64
1.340	0.01	10.92	-0.10	7.52
1.370	0.01	10.92	-0.10	7.52
1.400	0.01	10.92	-0.10	7.52
1.429	0.01	10.92	0.00	7.62
1.459	0.01	10.92	0.00	7.62
1.489	0.01	10.92	0.00	7.62
1.519	0.01	10.92	-0.05	7.56
1.548	0.01	10.92	-0.05	7.56
1.578	0.01	10.92	-0.05	7.56
1.608	0.01	10.92	-0.08	7.54
1.638	0.01	10.92	-0.08	7.54
1.668	0.01	10.92	-0.08	7.54
1.697	0.01	10.92	0.02	7.64
1.727	0.01	10.92	0.02	7.64
1.757	0.00	10.92	0.02	7.64
1.787	0.00	10.92	-0.09	7.52
1.816	0.00	10.92	-0.09	7.52
1.846	0.01	10.92	-0.09	7.52
1.876	0.01	10.92	0.00	7.62
1.906	0.01	10.92	0.00	7.62
1.936	0.00	10.92	0.00	7.62
1.965	0.00	10.92	-0.06	7.56
1.995	0.00	10.92	-0.06	7.56
2.025	0.00	10.92	-0.06	7.56
2.055	0.00	10.92	-0.07	7.55
2.084	0.00	10.92	-0.07	7.55
2.114	0.00	10.91	-0.07	7.55
2.144	0.00	10.91	0.02	7.64
2.174	0.00	10.91	0.02	7.64
2.204	0.00	10.91	0.02	7.64
2.233	0.00	10.91	-0.10	7.52
2.263	0.00	10.91	-0.10	7.52
2.293	0.00	10.92	-0.10	7.52
2.323	0.00	10.92	0.00	7.62
2.353	0.00	10.92	0.00	7.62
2.382	-0.00	10.91	0.00	7.62
2.412	-0.00	10.91	-0.06	7.56
2.442	-0.00	10.91	-0.06	7.56
2.472	0.00	10.92	-0.06	7.56
2.501	0.00	10.92	-0.07	7.55
2.531	0.00	10.92	-0.07	7.55
2.561	0.00	10.91	-0.07	7.55
2.591	0.00	10.91	0.02	7.64
2.621	0.00	10.91	0.02	7.64
2.650	0.00	10.92	0.02	7.64
2.680	0.00	10.92	-0.09	7.52
2.710	0.00	10.92	-0.09	7.52
2.740	-0.00	10.91	-0.09	7.52
2.769	-0.00	10.91	0.00	7.62
2.799	-0.00	10.91	0.00	7.62
2.829	-0.00	10.91	0.00	7.62
2.859	-0.00	10.91	-0.06	7.56
2.888	-0.00	10.91	-0.06	7.56
2.918	0.00	10.91	-0.06	7.56
2.948	0.00	10.91	-0.06	7.55
2.978	0.00	10.91	-0.06	7.55
3.007	0.00	10.91	-0.06	7.55
3.037	0.00	10.91	0.02	7.64
3.067	0.00	10.91	0.02	7.64
3.097	0.00	10.92	0.02	7.64
3.127	0.00	10.92	-0.10	7.52
3.156	0.00	10.92	-0.10	7.52
3.186	0.00	10.92	-0.10	7.52
3.216	0.00	10.92	0.01	7.62
3.246	0.00	10.92	0.01	7.62
3.275	0.00	10.92	0.01	7.62
3.305	0.00	10.92	-0.06	7.55
3.335	0.00	10.92	-0.06	7.55
3.365	0.00	10.91	-0.06	7.55
3.395	0.00	10.91	-0.06	7.56
3.424	0.00	10.91	-0.06	7.56
3.454	0.00	10.91	-0.06	7.56
3.484	0.00	10.91	0.02	7.64
3.514	0.00	10.91	0.02	7.64
3.544	0.00	10.92	0.02	7.64
3.573	0.00	10.92	-0.10	7.52
3.603	0.00	10.92	-0.10	7.52
3.633	0.00	10.92	-0.10	7.52
3.663	0.00	10.92	0.01	7.62
3.692	0.00	10.92	0.01	7.62
3.722	0.01	10.92	0.01	7.62
3.752	0.01	10.92	-0.06	7.55
3.782	0.01	10.92	-0.06	7.55
3.812	0.00	10.91	-0.06	7.55
3.841	0.00	10.91	-0.05	7.56
3.871	0.00	10.91	-0.05	7.56
3.901	0.00	10.91	-0.05	7.56
3.931	0.00	10.91	0.02	7.64
3.960	0.00	10.91	0.02	7.64
3.990	0.00	10.91	0.02	7.64
4.020	0.00	10.91	-0.10	7.52
4.050	0.00	10.91	-0.10	7.52
4.080	0.00	10.91	-0.10	7.52
4.109	0.00	10.91	0.01	7.63
4.139	0.00	10.91	0.01	7.63
4.169	-0.00	10.91	0.01	7.63
4.199	-0.00	10.91	-0.07	7.55
4.228	-0.00	10.91	-0.07	7.55
4.258	-0.00	10.91	-0.07	7.55
4.288	-0.00	10.91	-0.05	7.57
4.318	-0.00	10.91	-0.05	7.57
4.348	-0.00	10.91	-0.05	7.57
4.377	-0.00	10.91	0.02	7.64
4.407	-0.00	10.91	0.02	7.64
4.437	-0.00	10.91	0.02	7.64
4.467	-0.00	10.91	-0.10	7.52
4.496	-0.00	10.91	-0.10	7.52
4.526	0.00	10.91	-0.10	7.52
4.556	0.00	10.91	0.02	7.63
4.586	0.00	10.91	0.02	7.63
4.615	0.00	10.92	0.02	7.63
4.645	0.00	10.92	-0.07	7.55
4.675	0.00	10.92	-0.07	7.55
4.705	0.00	10.92	-0.07	7.55
4.734	0.00	10.92	-0.05	7.57
4.764	0.00	10.92	-0.05	7.57
4.794	0.01	10.92	-0.05	7.57
4.824	0.01	10.92	0.02	7.64
4.854	0.01	10.92	0.02	7.64
4.883	0.01	10.92	0.02	7.64
4.913	0.01	10.92	-0.10	7.52
4.943	0.01	10.92	-0.10	7.52
4.973	0.01	10.92	-0.10	7.52
5.002	0.01	10.92	0.02	7.63
5.032	0.01	10.92	0.02	7.63
5.062	0.00	10.92	0.02	7.63
5.092	0.00	10.92	-0.07	7.55
5.122	0.00	10.92	-0.07	7.55
5.151	12.65	23.56	-0.07	7.55
5.181	12.65	23.56	-0.03	7.58
5.211	12.65	23.56	-0.03	7.58
5.241	39.70	50.61	-0.03	7.58
5.270	39.70	50.61	0.02	7.64
5.300	39.70	50.61	0.02	7.64
5.330	24.81	35.72	0.02	7.64
5.360	24.81	35.72	-0.09	7.52
5.390	24.81	35.72	-0.09	7.52
5.419	26.25	37.16	-0.09	7.52
5.449	26.25	37.16	0.02	7.63
5.479	26.25	37.16	0.02	7.63
5.509	28.64	39.55	0.02	7.63
5.538	28.64	39.55	-0.07	7.54
5.568	28.64	39.55	-0.07	7.54
5.598	25.97	36.88	-0.07	7.54
5.628	25.97	36.88	-0.03	7.58
5.657	25.97	36.88	-0.03	7.58
5.687	27.37	38.28	-0.03	7.58
5.717	27.37	38.28	0.02	7.63
5.747	27.37	38.28	0.02	7.63
5.777	27.06	37.97	0.02	7.63
5.806	27.06	37.97	-0.10	7.52
5.836	27.06	37.97	-0.10	7.52
5.866	27.09	38.00	-0.10	7.52
5.896	27.09	38.00	0.02	7.64
5.925	27.09	38.00	0.02	7.64
5.955	26.96	37.87	0.02	7.64
5.985	26.96	37.87	-0.07	7.55
6.015	26.96	37.87	-0.07	7.55
6.045	26.79	37.70	-0.07	7.55
6.074	26.79	37.70	-0.03	7.59
6.104	26.79	37.70	-0.03	7.59
6.134	27.00	37.91	-0.03	7.59
6.164	27.00	37.91	0.01	7.63
6.193	27.00	37.91	0.01	7.63
6.223	26.92	37.84	0.01	7.63
6.253	26.92	37.84	-0.09	7.52
6.283	26.92	37.84	-0.09	7.52
6.312	27.05	37.96	-0.09	7.52
6.342	27.05	37.96	0.02	7.64
6.372	27.05	37.96	0.02	7.64
6.402	26.98	37.89	0.02	7.64
6.432	26.98	37.89	-0.07	7.55
6.461	26.98	37.89	-0.07	7.55
6.491	26.94	37.85	-0.07	7.55
6.521	26.94	37.85	-0.03	7.59
6.551	26.94	37.85	-0.03	7.59
6.580	26.98	37.89	-0.03	7.59
6.610	26.98	37.89	0.01	7.63
6.640	26.98	37.89	0.01	7.63
6.670	27.20	38.11	0.01	7.63
6.699	27.20	38.11	-0.09	7.52
6.729	27.20	38.11	-0.09	7.52
6.759	27.10	38.02	-0.09	7.52
6.789	27.10	38.02	0.02	7.64
6.819	27.10	38.02	0.02	7.64
6.848	27.00	37.92	0.02	7.64
6.878	27.00	37.92	-0.07	7.55
6.908	27.00	37.92	-0.07	7.55
6.938	27.02	37.93	-0.07	7.55
6.967	27.02	37.93	-0.02	7.59
6.997	27.02	37.93	-0.02	7.59
7.027	27.17	38.09	-0.02	7.59
7.057	27.17	38.09	0.01	7.63
7.086	27.17	38.09	0.01	7.63
7.116	27.25	38.16	0.01	7.63
7.146	27.25	38.16	-0.10	7.52
7.176	27.25	38.16	-0.10	7.52
7.206	27.22	38.13	-0.10	7.52
7.235	27.22	38.13	0.02	7.64
7.265	27.22	38.13	0.02	7.64
7.295	27.12	38.03	0.02	7.64
7.325	27.12	38.03	-0.07	7.54
7.354	27.12	38.03	-0.07	7.54
7.384	27.05	37.96	-0.07	7.54
7.414	27.05	37.96	-0.02	7.59
7.444	27.05	37.96	-0.02	7.59
7.473	26.99	37.90	-0.02	7.59
7.503	26.99	37.90	0.00	7.62
7.533	26.99	37.90	0.00	7.62
7.563	27.17	38.08	0.00	7.62
7.593	27.17	38.08	-0.09	7.52
7.622	27.17	38.08	-0.09	7.52
7.652	27.19	38.10	-0.09	7.52
7.682	27.19	38.10	0.03	7.64
7.712	27.19	38.10	0.03	7.64
7.741	27.11	38.02	0.03	7.64
7.771	27.11	38.02	-0.07	7.54
7.801	27.11	38.02	-0.07	7.54
7.831	27.09	38.00	-0.07	7.54
7.860	27.09	38.00	-0.01	7.60
7.890	27.09	38.00	-0.01	7.60
7.920	27.03	37.94	-0.01	7.60
7.950	27.03	37.94	0.00	7.62
7.980	27.03	37.94	0.00	7.62
8.009	27.15	38.06	0.00	7.62
8.039	27.15	38.06	-0.09	7.52
8.069	27.15	38.06	-0.09	7.52
8.099	27.10	38.01	-0.09	7.52
8.128	27.10	38.01	0.02	7.64
8.158	27.10	38.01	0.02	7.64
8.188	27.04	37.95	0.02	7.64
8.218	27.04	37.95	-0.08	7.54
8.247	27.04	37.95	-0.08	7.54
8.277	27.03	37.94	-0.08	7.54
8.307	27.03	37.94	-0.01	7.60
8.337	27.03	37.94	-0.01	7.60
8.367	27.04	37.95	-0.01	7.60
8.396	27.04	37.95	-0.00	7.61
8.426	27.04	37.95	-0.00	7.61
8.456	27.12	38.03	-0.00	7.61
8.486	27.12	38.03	-0.09	7.52
8.515	27.12	38.03	-0.09	7.52
8.545	27.12	38.03	-0.09	7.52
8.575	27.12	38.03	0.03	7.64
8.605	27.12	38.03	0.03	7.64
8.634	27.09	38.00	0.03	7.64
8.664	27.09	38.00	-0.08	7.54
8.694	27.09	38.00	-0.08	7.54
8.724	27.08	37.99	-0.08	7.54
8.754	27.08	37.99	-0.01	7.61
8.783	27.08	37.99	-0.01	7.61
8.813	27.02	37.94	-0.01	7.61
8.843	27.02	37.94	-0.01	7.61
8.873	27.02	37.94	-0.01	7.61
8.902	27.19	38.10	-0.01	7.61
8.932	27.19	38.10	-0.10	7.52
8.962	27.19	38.10	-0.10	7.52
8.992	27.17	38.08	-0.10	7.52
9.021	27.17	38.08	0.03	7.64
9.051	27.17	38.08	0.03	7.64
9.081	27.13	38.04	0.03	7.64
9.111	27.13	38.04	-0.08	7.53
9.141	27.13	38.04	-0.08	7.53
9.170	27.17	38.09	-0.08	7.53
9.200	27.17	38.09	-0.01	7.61
9.230	27.17	38.09	-0.01	7.61
9.260	27.08	37.99	-0.01	7.61
9.289	27.08	37.99	-0.01	7.60
9.319	27.08	37.99	-0.01	7.60
9.349	27.27	38.18	-0.01	7.60
9.379	27.27	38.18	-0.09	7.52
9.408	27.27	38.18	-0.09	7.52
9.438	27.29	38.20	-0.09	7.52
9.468	27.29	38.20	0.03	7.64
9.498	27.29	38.20	0.03	7.64
9.528	27.15	38.06	0.03	7.64
9.557	27.15	38.06	-0.08	7.53
9.587	27.15	38.06	-0.08	7.53
9.617	27.20	38.11	-0.08	7.53
9.647	27.20	38.11	-0.01	7.61
9.676	27.20	38.11	-0.01	7.61
9.706	27.21	38.12	-0.01	7.61
9.736	27.21	38.12	-0.01	7.60
9.766	27.21	38.12	-0.01	7.60
9.795	27.30	38.21	-0.01	7.60
9.825	27.30	38.21	-0.09	7.52
9.855	27.30	38.21	-0.09	7.52
9.885	27.26	38.18	-0.09	7.52
9.915	27.26	38.18	0.03	7.64
9.944	27.26	38.18	0.03	7.64
9.974	27.21	38.12	0.03	7.64
10.004	27.21	38.12	-0.08	7.53
10.034	27.21	38.12	-0.08	7.53
10.063	27.18	38.09	-0.08	7.53
10.093	27.18	38.09	-0.00	7.61
10.123	27.18	38.09	-0.00	7.61
10.153	27.11	38.03	-0.00	7.61
10.182	27.11	38.03	-0.02	7.59
10.212	27.11	38.03	-0.02	7.59
10.242	27.34	38.25	-0.02	7.59
10.272	27.34	38.25	-0.09	7.52
10.302	27.34	38.25	-0.09	7.52
10.331	27.23	38.14	-0.09	7.52
10.361	27.23	38.14	0.02	7.64
10.391	27.23	38.14	0.02	7.64
10.421	27.32	38.24	0.02	7.64
10.450	27.32	38.24	-0.08	7.53
10.480	27.32	38.24	-0.08	7.53
10.510	27.20	38.11	-0.08	7.53
10.540	27.20	38.11	-0.00	7.61
10.569	27.20	38.11	-0.00	7.61
10.599	27.15	38.06	-0.00	7.61
10.629	27.15	38.06	-0.02	7.59
10.659	27.15	38.06	-0.02	7.59
10.688	27.30	38.21	-0.02	7.59
10.718	27.30	38.21	-0.09	7.52
10.748	27.30	38.21	-0.09	7.52
10.778	27.19	38.10	-0.09	7.52
10.807	27.19	38.10	0.03	7.64
10.837	27.19	38.10	0.03	7.64
10.867	27.15	38.06	0.03	7.64
10.897	27.15	38.06	-0.08	7.53
10.926	27.15	38.06	-0.08	7.53
10.956	27.13	38.04	-0.08	7.53
10.986	27.13	38.04	-0.00	7.61
11.016	27.13	38.04	-0.00	7.61
11.046	27.15	38.06	-0.00	7.61
11.075	27.15	38.06	-0.03	7.59
11.105	27.15	38.06	-0.03	7.59
11.135	27.29	38.20	-0.03	7.59
11.165	27.29	38.20	-0.09	7.52
11.194	27.29	38.20	-0.09	7.52
11.224	27.24	38.15	-0.09	7.52
11.254	27.24	38.15	0.03	7.65
11.284	27.24	38.15	0.03	7.65
11.313	27.23	38.14	0.03	7.65
11.343	27.23	38.14	-0.09	7.53
11.373	27.23	38.14	-0.09	7.53
11.403	27.13	38.04	-0.09	7.53
11.432	27.13	38.04	-0.00	7.61
11.462	27.13	38.04	-0.00	7.61
11.492	27.15	38.06	-0.00	7.61
11.522	27.15	38.06	-0.04	7.58
11.551	27.15	38.06	-0.04	7.58
11.581	27.21	38.12	-0.04	7.58
11.611	27.21	38.12	-0.09	7.53
11.641	27.21	38.12	-0.09	7.53
11.671	27.23	38.14	-0.09	7.53
11.700	27.23	38.14	0.02	7.64
11.730	27.23	38.14	0.02	7.64
11.760	27.17	38.08	0.02	7.64
11.790	27.17	38.08	-0.09	7.53
11.819	27.17	38.08	-0.09	7.53
11.849	27.19	38.10	-0.09	7.53
11.879	27.19	38.10	-0.00	7.61
11.909	27.19	38.10	-0.00	7.61
11.938	27.14	38.05	-0.00	7.61
11.968	27.14	38.05	-0.04	7.58
11.998	27.14	38.05	-0.04	7.58
12.028	27.30	38.21	-0.04	7.58
12.057	27.30	38.21	-0.08	7.53
12.087	27.30	38.21	-0.08	7.53
12.117	27.23	38.14	-0.08	7.53
12.147	27.23	38.14	0.03	7.65
12.176	27.23	38.14	0.03	7.65
12.206	27.29	38.20	0.03	7.65
12.236	27.29	38.20	-0.09	7.52
12.266	27.29	38.20	-0.09	7.52
12.296	27.16	38.07	-0.09	7.52
12.325	27.16	38.07	0.00	7.62
12.355	27.16	38.07	0.00	7.62
12.385	27.16	38.07	0.00	7.62
12.415	27.16	38.07	-0.04	7.57
12.444	27.16	38.07	-0.04	7.57
12.474	27.30	38.21	-0.04	7.57
12.504	27.30	38.21	-0.08	7.53
12.534	27.30	38.21	-0.08	7.53
12.563	27.21	38.12	-0.08	7.53
12.593	27.21	38.12	0.03	7.64
12.623	27.21	38.12	0.03	7.64
12.653	27.11	38.03	0.03	7.64
12.682	27.11	38.03	-0.09	7.53
12.712	27.11	38.03	-0.09	7.53
12.742	27.22	38.13	-0.09	7.53
12.772	27.22	38.13	0.00	7.62
12.801	27.22	38.13	0.00	7.62
12.831	27.17	38.09	0.00	7.62
12.861	27.17	38.09	-0.04	7.58
12.891	27.17	38.09	-0.04	7.58
12.920	27.29	38.20	-0.04	7.58
12.950	27.29	38.20	-0.08	7.53
12.980	27.29	38.20	-0.08	7.53
13.010	27.15	38.06	-0.08	7.53
13.040	27.15	38.06	0.03	7.64
13.069	27.15	38.06	0.03	7.64
13.099	27.21	38.12	0.03	7.64
13.129	27.21	38.12	-0.10	7.52
13.159	27.21	38.12	-0.10	7.52
13.188	27.28	38.19	-0.10	7.52
13.218	27.28	38.19	0.00	7.62
13.248	27.28	38.19	0.00	7.62
13.278	27.27	38.19	0.00	7.62
13.307	27.27	38.19	-0.05	7.57
13.337	27.27	38.19	-0.05	7.57
13.367	27.27	38.19	-0.05	7.57
13.397	27.27	38.19	-0.08	7.54
13.426	27.27	38.19	-0.08	7.54
13.456	27.20	38.11	-0.08	7.54
13.486	27.20	38.11	0.03	7.64
13.516	27.20	38.11	0.03	7.64
13.545	27.18	38.09	0.03	7.64
13.575	27.18	38.09	-0.09	7.53
13.605	27.18	38.09	-0.09	7.53
13.635	27.18	38.09	-0.09	7.53
13.665	27.18	38.09	0.00	7.62
13.694	27.18	38.09	0.00	7.62
13.724	27.26	38.17	0.00	7.62
13.754	27.26	38.17	-0.05	7.57
13.784	27.26	38.17	-0.05	7.57
13.813	27.29	38.20	-0.05	7.57
13.843	27.29	38.20	-0.08	7.54
13.873	27.29	38.20	-0.08	7.54
13.903	27.25	38.16	-0.08	7.54
13.932	27.25	38.16	0.02	7.64
13.962	27.25	38.16	0.02	7.64
13.992	27.23	38.14	0.02	7.64
14.022	27.23	38.14	-0.09	7.52
14.051	27.23	38.14	-0.09	7.52
14.081	27.33	38.24	-0.09	7.52
14.111	27.33	38.24	0.00	7.62
14.141	27.33	38.24	0.00	7.62
14.170	27.29	38.20	0.00	7.62
14.200	27.29	38.20	-0.05	7.56
14.230	27.29	38.20	-0.05	7.56
14.260	27.37	38.28	-0.05	7.56
14.289	27.37	38.28	-0.07	7.54
14.319	27.37	38.28	-0.07	7.54
14.349	27.32	38.23	-0.07	7.54
14.379	27.32	38.23	0.03	7.64
14.409	27.32	38.23	0.03	7.64
14.438	27.24	38.15	0.03	7.64
14.468	27.24	38.15	-0.09	7.52
14.498	27.24	38.15	-0.09	7.52
14.528	27.32	38.23	-0.09	7.52
14.557	27.32	38.23	0.00	7.62
14.587	27.32	38.23	0.00	7.62
14.617	27.31	38.22	0.00	7.62
14.647	27.31	38.22	-0.05	7.57
14.676	27.31	38.22	-0.05	7.57
14.706	27.34	38.25	-0.05	7.57
14.736	27.34	38.25	-0.07	7.55
14.766	27.34	38.25	-0.07	7.55
14.795	27.30	38.21	-0.07	7.55
14.825	27.30	38.21	0.02	7.64
14.855	27.30	38.21	0.02	7.64
14.885	27.24	38.15	0.02	7.64
14.914	27.24	38.15	-0.09	7.52
14.944	27.24	38.15	-0.09	7.52
14.974	27.25	38.17	-0.09	7.52
15.004	27.25	38.17	0.01	7.62
15.033	27.25	38.17	0.01	7.62
15.063	27.23	38.14	0.01	7.62
15.093	27.23	38.14	-0.05	7.56
15.123	27.23	38.14	-0.05	7.56
15.153	27.36	38.27	-0.05	7.56
15.182	27.36	38.27	-0.06	7.55
15.212	27.36	38.27	-0.06	7.55
15.242	27.29	38.20	-0.06	7.55
15.272	27.29	38.20	0.03	7.64
15.301	27.29	38.20	0.03	7.64
15.331	27.24	38.15	0.03	7.64
15.361	27.24	38.15	-0.09	7.52
15.391	27.24	38.15	-0.09	7.52
15.420	27.21	38.13	-0.09	7.52
15.450	27.21	38.13	0.01	7.62
15.480	27.21	38.13	0.01	7.62
15.510	27.29	38.20	0.01	7.62
15.539	27.29	38.20	-0.06	7.56
15.569	27.29	38.20	-0.06	7.56
15.599	27.32	38.23	-0.06	7.56
15.629	27.32	38.23	-0.06	7.55
15.658	27.32	38.23	-0.06	7.55
15.688	27.24	38.15	-0.06	7.55
15.718	27.24	38.15	0.03	7.64
15.748	27.24	38.15	0.03	7.64
15.777	27.24	38.15	0.03	7.64
15.807	27.24	38.15	-0.10	7.52
15.837	27.24	38.15	-0.10	7.52
15.867	27.33	38.24	-0.10	7.52
15.897	27.33	38.24	0.01	7.62
15.926	27.33	38.24	0.01	7.62
15.956	27.25	38.16	0.01	7.62
15.986	27.25	38.16	-0.06	7.55
16.016	27.25	38.16	-0.06	7.55
16.045	27.28	38.19	-0.06	7.55
16.075	27.28	38.19	-0.06	7.55
16.105	27.28	38.19	-0.06	7.55
16.135	27.28	38.19	-0.06	7.55
16.164	27.28	38.19	0.02	7.64
16.194	27.28	38.19	0.02	7.64
16.224	27.20	38.12	0.02	7.64
16.254	27.20	38.12	-0.10	7.52
16.283	27.20	38.12	-0.10	7.52
16.313	27.20	38.11	-0.10	7.52
16.343	27.20	38.11	0.01	7.62
16.373	27.20	38.11	0.01	7.62
16.402	27.30	38.21	0.01	7.62
16.432	27.30	38.21	-0.06	7.55
16.462	27.30	38.21	-0.06	7.55
16.492	27.35	38.26	-0.06	7.55
16.521	27.35	38.26	-0.06	7.56
16.551	27.35	38.26	-0.06	7.56
16.581	27.29	38.20	-0.06	7.56
16.611	27.29	38.20	0.03	7.64
16.641	27.29	38.20	0.03	7.64
16.670	27.26	38.18	0.03	7.64
16.700	27.26	38.18	-0.09	7.52
16.730	27.26	38.18	-0.09	7.52
16.760	27.19	38.10	-0.09	7.52
16.789	27.19	38.10	0.01	7.63
16.819	27.19	38.10	0.01	7.63
16.849	27.27	38.18	0.01	7.63
16.879	27.27	38.18	-0.06	7.55
16.908	27.27	38.18	-0.06	7.55
16.938	27.29	38.20	-0.06	7.55
16.968	27.29	38.20	-0.06	7.56
16.998	27.29	38.20	-0.06	7.56
17.027	27.24	38.15	-0.06	7.56
17.057	27.24	38.15	0.03	7.64
17.087	27.24	38.15	0.03	7.64
17.117	27.21	38.13	0.03	7.64
17.146	27.21	38.13	-0.10	7.52
17.176	27.21	38.13	-0.10	7.52
17.206	27.21	38.12	-0.10	7.52
17.236	27.21	38.12	0.01	7.63
17.265	27.21	38.12	0.01	7.63
17.295	27.35	38.26	0.01	7.63
17.325	27.35	38.26	-0.06	7.55
17.355	27.35	38.26	-0.06	7.55
17.385	27.35	38.27	-0.06	7.55
17.414	27.35	38.27	-0.05	7.56
17.444	27.35	38.27	-0.05	7.56
17.474	27.32	38.24	-0.05	7.56
17.504	27.32	38.24	0.02	7.64
17.533	27.32	38.24	0.02	7.64
17.563	27.30	38.21	0.02	7.64
17.593	27.30	38.21	-0.09	7.52
17.623	27.30	38.21	-0.09	7.52
17.652	27.24	38.15	-0.09	7.52
17.682	27.24	38.15	0.01	7.63
17.712	27.24	38.15	0.01	7.63
17.742	27.34	38.25	0.01	7.63
17.771	27.34	38.25	-0.06	7.55
17.801	27.34	38.25	-0.06	7.55
17.831	27.33	38.24	-0.06	7.55
17.861	27.33	38.24	-0.05	7.57
17.890	27.33	38.24	-0.05	7.57
17.920	27.33	38.24	-0.05	7.57
17.950	27.33	38.24	0.03	7.64
17.980	27.33	38.24	0.03	7.64
18.009	27.27	38.18	0.03	7.64
18.039	27.27	38.18	-0.09	7.52
18.069	27.27	38.18	-0.09	7.52
18.099	27.31	38.22	-0.09	7.52
18.129	27.31	38.22	0.01	7.63
18.158	27.31	38.22	0.01	7.63
18.188	27.32	38.24	0.01	7.63
18.218	27.32	38.24	-0.07	7.55
18.248	27.32	38.24	-0.07	7.55
18.277	27.30	38.21	-0.07	7.55
18.307	27.30	38.21	-0.05	7.57
18.337	27.30	38.21	-0.05	7.57
18.367	27.30	38.21	-0.05	7.57
18.396	27.30	38.21	0.02	7.64
18.426	27.30	38.21	0.02	7.64
18.456	27.30	38.22	0.02	7.64
18.486	27.30	38.22	-0.09	7.53
18.515	27.30	38.22	-0.09	7.53
18.545	27.28	38.19	-0.09	7.53
18.575	27.28	38.19	0.01	7.63
18.605	27.28	38.19	0.01	7.63
18.634	27.33	38.24	0.01	7.63
18.664	27.33	38.24	-0.06	7.55
18.694	27.33	38.24	-0.06	7.55
18.724	27.30	38.21	-0.06	7.55
18.754	27.30	38.21	-0.05	7.57
18.783	27.30	38.21	-0.05	7.57
18.813	27.32	38.23	-0.05	7.57
18.843	27.32	38.23	0.02	7.64
18.873	27.32	38.23	0.02	7.64
18.902	27.31	38.23	0.02	7.64
18.932	27.31	38.23	-0.09	7.53
18.962	27.31	38.23	-0.09	7.53
18.992	27.23	38.14	-0.09	7.53
19.021	27.23	38.14	0.02	7.63
19.051	27.23	38.14	0.02	7.63
19.081	27.42	38.33	0.02	7.63
19.111	27.42	38.33	-0.06	7.55
19.140	27.42	38.33	-0.06	7.55
19.170	27.47	38.38	-0.06	7.55
19.200	27.47	38.38	-0.04	7.57
19.230	27.47	38.38	-0.04	7.57
19.259	27.38	38.29	-0.04	7.57
19.289	27.38	38.29	0.03	7.64
19.319	27.38	38.29	0.03	7.64
19.349	27.38	38.29	0.03	7.64
19.378	27.38	38.29	-0.09	7.52
19.408	27.38	38.29	-0.09	7.52
19.438	27.36	38.28	-0.09	7.52
19.468	27.36	38.28	0.01	7.63
19.497	27.36	38.28	0.01	7.63
19.527	27.34	38.25	0.01	7.63
19.557	27.34	38.25	-0.07	7.55
19.587	27.34	38.25	-0.07	7.55
19.616	27.30	38.21	-0.07	7.55
19.646	27.30	38.21	-0.04	7.57
19.676	27.30	38.21	-0.04	7.57
19.706	27.35	38.27	-0.04	7.57
19.735	27.35	38.27	0.02	7.64
19.765	27.35	38.27	0.02	7.64
19.795	27.26	38.17	0.02	7.64
19.825	27.26	38.17	-0.10	7.52
19.854	27.26	38.17	-0.10	7.52
19.884	27.25	38.16	-0.10	7.52
19.914	27.25	38.16	0.01	7.63
19.944	27.25	38.16	0.01	7.63
19.973	27.37	38.28	0.01	7.63
20.003	27.37	38.28	-0.07	7.55
20.033	27.37	38.28	-0.07	7.55
20.063	27.36	38.27	-0.07	7.55
20.093	27.36	38.27	-0.04	7.58
20.122	27.36	38.27	-0.04	7.58
20.152	27.32	38.23	-0.04	7.58
20.182	27.32	38.23	0.02	7.64
20.212	27.32	38.23	0.02	7.64
20.241	27.40	38.31	0.02	7.64
20.271	27.40	38.31	-0.09	7.52
20.301	27.40	38.31	-0.09	7.52
20.331	27.22	38.13	-0.09	7.52
20.360	27.22	38.13	0.02	7.63
20.390	27.22	38.13	0.02	7.63
20.420	27.36	38.27	0.02	7.63
20.450	27.36	38.27	-0.07	7.55
20.479	27.36	38.27	-0.07	7.55
20.509	27.38	38.29	-0.07	7.55
20.539	27.38	38.29	-0.04	7.58
20.569	27.38	38.29	-0.04	7.58
20.598	27.37	38.28	-0.04	7.58
20.628	27.37	38.28	0.02	7.64
20.658	27.37	38.28	0.02	7.64
20.688	27.30	38.21	0.02	7.64
20.718	27.30	38.21	-0.09	7.52
20.747	27.30	38.21	-0.09	7.52
20.777	27.27	38.18	-0.09	7.52
20.807	27.27	38.18	0.02	7.63
20.837	27.27	38.18	0.02	7.63
20.866	27.38	38.29	0.02	7.63
20.896	27.38	38.29	-0.07	7.54
20.926	27.38	38.29	-0.07	7.54
20.956	27.33	38.24	-0.07	7.54
20.985	27.33	38.24	-0.04	7.58
21.015	27.33	38.24	-0.04	7.58
21.045	27.32	38.23	-0.04	7.58
21.075	27.32	38.23	0.02	7.63
21.104	27.32	38.23	0.02	7.63
21.134	27.28	38.19	0.02	7.63
21.164	27.28	38.19	-0.10	7.52
21.194	27.28	38.19	-0.10	7.52
21.223	27.32	38.24	-0.10	7.52
21.253	27.32	38.24	0.02	7.63
21.283	27.32	38.24	0.02	7.63
21.313	27.36	38.27	0.02	7.63
21.343	27.36	38.27	-0.07	7.55
21.372	27.36	38.27	-0.07	7.55
21.402	27.30	38.21	-0.07	7.55
21.432	27.30	38.21	-0.03	7.58
21.462	27.30	38.21	-0.03	7.58
21.491	27.29	38.20	-0.03	7.58
21.521	27.29	38.20	0.02	7.64
21.551	27.29	38.20	0.02	7.64
21.581	27.26	38.17	0.02	7.64
21.610	27.26	38.17	-0.09	7.52
21.640	27.26	38.17	-0.09	7.52
21.670	27.20	38.11	-0.09	7.52
21.700	27.20	38.11	0.02	7.64
21.729	27.20	38.11	0.02	7.64
21.759	27.33	38.24	0.02	7.64
21.789	27.33	38.24	-0.06	7.55
21.819	27.33	38.24	-0.06	7.55
21.848	27.31	38.22	-0.06	7.55
21.878	27.31	38.22	-0.03	7.58
21.908	27.31	38.22	-0.03	7.58
21.938	27.30	38.21	-0.03	7.58
21.967	27.30	38.21	0.02	7.64
21.997	27.30	38.21	0.02	7.64
22.027	27.29	38.20	0.02	7.64
22.057	27.29	38.20	-0.09	7.52
22.086	27.29	38.20	-0.09	7.52
22.116	27.23	38.14	-0.09	7.52
22.146	27.23	38.14	0.02	7.64
22.176	27.23	38.14	0.02	7.64
22.206	27.39	38.30	0.02	7.64
22.235	27.39	38.30	-0.07	7.55
22.265	27.39	38.30	-0.07	7.55
22.295	27.31	38.22	-0.07	7.55
22.325	27.31	38.22	-0.03	7.58
22.354	27.31	38.22	-0.03	7.58
22.384	27.31	38.22	-0.03	7.58
22.414	27.31	38.22	0.02	7.64
22.444	27.31	38.22	0.02	7.64
22.473	27.23	38.14	0.02	7.64
22.503	27.23	38.14	-0.09	7.52
22.533	27.23	38.14	-0.09	7.52
22.563	27.22	38.13	-0.09	7.52
22.592	27.22	38.13	0.02	7.63
22.622	27.22	38.13	0.02	7.63
22.652	27.40	38.31	0.02	7.63
22.682	27.40	38.31	-0.07	7.55
22.711	27.40	38.31	-0.07	7.55
22.741	27.36	38.28	-0.07	7.55
22.771	27.36	38.28	-0.03	7.58
22.801	27.36	38.28	-0.03	7.58
22.830	27.31	38.22	-0.03	7.58
22.860	27.31	38.22	0.02	7.63
22.890	27.31	38.22	0.02	7.63
22.920	27.39	38.30	0.02	7.63
22.950	27.39	38.30	-0.10	7.52
22.979	27.39	38.30	-0.10	7.52
23.009	27.29	38.20	-0.10	7.52
23.039	27.29	38.20	0.02	7.64
23.069	27.29	38.20	0.02	7.64
23.098	27.32	38.23	0.02	7.64
23.128	27.32	38.23	-0.07	7.54
23.158	27.32	38.23	-0.07	7.54
23.188	27.31	38.22	-0.07	7.54
23.217	27.31	38.22	-0.03	7.59
23.247	27.31	38.22	-0.03	7.59
23.277	27.27	38.18	-0.03	7.59
23.307	27.27	38.18	0.02	7.64
23.336	27.27	38.18	0.02	7.64
23.366	27.24	38.15	0.02	7.64
23.396	27.24	38.15	-0.10	7.52
23.426	27.24	38.15	-0.10	7.52
23.455	27.03	37.94	-0.10	7.52
23.485	27.03	37.94	0.02	7.64
23.515	27.03	37.94	0.02	7.64
23.545	27.17	38.08	0.02	7.64
23.575	27.17	38.08	-0.07	7.55
23.604	27.17	38.08	-0.07	7.55
23.634	27.16	38.07	-0.07	7.55
23.664	27.16	38.07	-0.03	7.58
23.694	27.16	38.07	-0.03	7.58
23.723	27.15	38.06	-0.03	7.58
23.753	27.15	38.06	0.02	7.63
23.783	27.15	38.06	0.02	7.63
23.813	27.13	38.04	0.02	7.63
23.842	27.13	38.04	-0.10	7.52
23.872	27.13	38.04	-0.10	7.52
23.902	27.02	37.93	-0.10	7.52
23.932	27.02	37.93	0.02	7.64
23.961	27.02	37.93	0.02	7.64
23.991	27.09	38.00	0.02	7.64
24.021	27.09	38.00	-0.07	7.55
24.051	27.09	38.00	-0.07	7.55
24.080	27.16	38.07	-0.07	7.55
24.110	27.16	38.07	-0.03	7.59
24.140	27.16	38.07	-0.03	7.59
24.170	27.11	38.02	-0.03	7.59
24.200	27.11	38.02	0.01	7.63
24.229	27.11	38.02	0.01	7.63
24.259	27.02	37.94	0.01	7.63
24.289	27.02	37.94	-0.10	7.52
24.319	27.02	37.94	-0.10	7.52
24.348	26.96	37.87	-0.10	7.52
24.378	26.96	37.87	0.02	7.64
24.408	26.96	37.87	0.02	7.64
24.438	27.21	38.12	0.02	7.64
24.467	27.21	38.12	-0.07	7.54
24.497	27.21	38.12	-0.07	7.54
24.527	27.22	38.13	-0.07	7.54
24.557	27.22	38.13	-0.03	7.59
24.586	27.22	38.13	-0.03	7.59
24.616	27.14	38.05	-0.03	7.59
24.646	27.14	38.05	0.02	7.63
24.676	27.14	38.05	0.02	7.63
24.705	27.19	38.10	0.02	7.63
24.735	27.19	38.10	-0.10	7.52
24.765	27.19	38.10	-0.10	7.52
24.795	27.14	38.05	-0.10	7.52
24.825	27.14	38.05	0.02	7.64
24.854	27.14	38.05	0.02	7.64
24.884	27.15	38.07	0.02	7.64
24.914	27.15	38.07	-0.07	7.54
24.944	27.15	38.07	-0.07	7.54
24.973	27.14	38.05	-0.07	7.54
25.003	27.14	38.05	-0.03	7.59
25.033	27.14	38.05	-0.03	7.59
25.063	27.05	37.96	-0.03	7.59
25.092	27.05	37.96	0.02	7.63
25.122	27.05	37.96	0.02	7.63
25.152	27.04	37.95	0.02	7.63
25.182	27.04	37.95	-0.10	7.52
25.211	27.04	37.95	-0.10	7.52
25.241	27.06	37.97	-0.10	7.52
25.271	27.06	37.97	0.02	7.64
25.301	27.06	37.97	0.02	7.64
25.330	27.24	38.15	0.02	7.64
25.360	27.24	38.15	-0.07	7.55
25.390	27.24	38.15	-0.07	7.55
25.420	27.27	38.19	-0.07	7.55
25.450	27.27	38.19	-0.03	7.59
25.479	27.27	38.19	-0.03	7.59
25.509	27.14	38.05	-0.03	7.59
25.539	27.14	38.05	0.02	7.63
25.569	27.14	38.05	0.02	7.63
25.598	27.20	38.11	0.02	7.63
25.628	27.20	38.11	-0.09	7.52
25.658	27.20	38.11	-0.09	7.52
25.688	27.10	38.01	-0.09	7.52
25.717	27.10	38.01	0.02	7.64
25.747	27.10	38.01	0.02	7.64
25.777	27.20	38.11	0.02	7.64
25.807	27.20	38.11	-0.07	7.54
25.836	27.20	38.11	-0.07	7.54
25.866	27.21	38.12	-0.07	7.54
25.896	27.21	38.12	-0.03	7.58
25.926	27.21	38.12	-0.03	7.58
25.955	27.09	38.00	-0.03	7.58
25.985	27.09	38.00	0.02	7.64
26.015	27.09	38.00	0.02	7.64
26.045	27.07	37.98	0.02	7.64
26.074	27.07	37.98	-0.09	7.52
26.104	27.07	37.98	-0.09	7.52
26.134	27.06	37.97	-0.09	7.52
26.164	27.06	37.97	0.02	7.64
26.194	27.06	37.97	0.02	7.64
26.223	27.15	38.06	0.02	7.64
26.253	27.15	38.06	-0.07	7.55
26.283	27.15	38.06	-0.07	7.55
26.313	27.10	38.01	-0.07	7.55
26.342	27.10	38.01	-0.03	7.59
26.372	27.10	38.01	-0.03	7.59
26.402	27.16	38.08	-0.03	7.59
26.432	27.16	38.08	0.02	7.64
26.461	27.16	38.08	0.02	7.64
26.491	27.14	38.05	0.02	7.64
26.521	27.14	38.05	-0.10	7.52
26.551	27.14	38.05	-0.10	7.52
26.580	27.06	37.97	-0.10	7.52
26.610	27.06	37.97	0.02	7.64
26.640	27.06	37.97	0.02	7.64
26.670	27.19	38.10	0.02	7.64
26.699	27.19	38.10	-0.07	7.54
26.729	27.19	38.10	-0.07	7.54
26.759	27.18	38.09	-0.07	7.54
26.789	27.18	38.09	-0.03	7.58
26.818	27.18	38.09	-0.03	7.58
26.848	27.12	38.03	-0.03	7.58
26.878	27.12	38.03	0.02	7.64
26.908	27.12	38.03	0.02	7.64
26.938	27.14	38.05	0.02	7.64
26.967	27.14	38.05	-0.09	7.52
26.997	27.14	38.05	-0.09	7.52
27.027	27.07	37.98	-0.09	7.52
27.057	27.07	37.98	0.02	7.63
27.086	27.07	37.98	0.02	7.63
27.116	27.26	38.17	0.02	7.63
27.146	27.26	38.17	-0.07	7.55
27.176	27.26	38.17	-0.07	7.55
27.205	27.14	38.05	-0.07	7.55
27.235	27.14	38.05	-0.03	7.59
27.265	27.14	38.05	-0.03	7.59
27.295	27.17	38.08	-0.03	7.59
27.324	27.17	38.08	0.02	7.63
27.354	27.17	38.08	0.02	7.63
27.384	27.14	38.05	0.02	7.63
27.414	27.14	38.05	-0.10	7.52
27.444	27.14	38.05	-0.10	7.52
27.473	27.05	37.96	-0.10	7.52
27.503	27.05	37.96	0.02	7.64
27.533	27.05	37.96	0.02	7.64
27.563	27.17	38.08	0.02	7.64
27.592	27.17	38.08	-0.07	7.55
27.622	27.17	38.08	-0.07	7.55
27.652	27.15	38.06	-0.07	7.55
27.682	27.15	38.06	-0.03	7.58
27.711	27.15	38.06	-0.03	7.58
27.741	27.11	38.02	-0.03	7.58
27.771	27.11	38.02	0.02	7.63
27.801	27.11	38.02	0.02	7.63
27.830	27.07	37.98	0.02	7.63
27.860	27.07	37.98	-0.09	7.52
27.890	27.07	37.98	-0.09	7.52
27.920	27.02	37.94	-0.09	7.52
27.949	27.02	37.94	0.02	7.63
27.979	27.02	37.94	0.02	7.63
28.009	27.19	38.10	0.02	7.63
28.039	27.19	38.10	-0.07	7.55
28.068	27.19	38.10	-0.07	7.55
28.098	27.17	38.08	-0.07	7.55
28.128	27.17	38.08	-0.04	7.58
28.158	27.17	38.08	-0.04	7.58
28.188	27.10	38.01	-0.04	7.58
28.217	27.10	38.01	0.02	7.64
28.247	27.10	38.01	0.02	7.64
28.277	27.17	38.08	0.02	7.64
28.307	27.17	38.08	-0.09	7.53
28.336	27.17	38.08	-0.09	7.53
28.366	27.05	37.97	-0.09	7.53
28.396	27.05	37.97	0.02	7.63
28.426	27.05	37.97	0.02	7.63
28.455	27.21	38.12	0.02	7.63
28.485	27.21	38.12	-0.06	7.55
28.515	27.21	38.12	-0.06	7.55
28.545	27.15	38.06	-0.06	7.55
28.574	27.15	38.06	-0.04	7.58
28.604	27.15	38.06	-0.04	7.58
28.634	27.19	38.10	-0.04	7.58
28.664	27.19	38.10	0.02	7.64
28.693	27.19	38.10	0.02	7.64
28.723	27.05	37.97	0.02	7.64
28.753	27.05	37.97	-0.09	7.52
28.783	27.05	37.97	-0.09	7.52
28.813	27.02	37.93	-0.09	7.52
28.842	27.02	37.93	0.02	7.63
28.872	27.02	37.93	0.02	7.63
28.902	27.22	38.13	0.02	7.63
28.932	27.22	38.13	-0.07	7.55
28.961	27.22	38.13	-0.07	7.55
28.991	27.21	38.12	-0.07	7.55
29.021	27.21	38.12	-0.04	7.58
29.051	27.21	38.12	-0.04	7.58
29.080	27.18	38.09	-0.04	7.58
29.110	27.18	38.09	0.02	7.64
29.140	27.18	38.09	0.02	7.64
29.170	27.15	38.06	0.02	7.64
29.199	27.15	38.06	-0.09	7.52
29.229	27.15	38.06	-0.09	7.52
29.259	27.16	38.07	-0.09	7.52
29.289	27.16	38.07	0.01	7.63
29.318	27.16	38.07	0.01	7.63
29.348	27.21	38.13	0.01	7.63
29.378	27.21	38.13	-0.06	7.55
29.408	27.21	38.13	-0.06	7.55
29.438	27.17	38.08	-0.06	7.55
29.467	27.17	38.08	-0.04	7.58
29.497	27.17	38.08	-0.04	7.58
29.527	27.05	37.96	-0.04	7.58
29.557	27.05	37.96	0.02	7.64
29.586	27.05	37.96	0.02	7.64
29.616	27.07	37.98	0.02	7.64
29.646	27.07	37.98	-0.09	7.52
29.676	27.07	37.98	-0.09	7.52
29.705	27.02	37.93	-0.09	7.52
29.735	27.02	37.93	0.01	7.63
29.765	27.02	37.93	0.01	7.63
29.795	27.12	38.04	0.01	7.63
29.824	27.12	38.04	-0.07	7.55
29.854	27.12	38.04	-0.07	7.55
29.884	27.12	38.03	-0.07	7.55
29.914	27.12	38.03	-0.04	7.57
29.943	27.12	38.03	-0.04	7.57
29.973	27.09	38.00	-0.04	7.57
30.003	27.09	38.00	0.02	7.64
30.033	27.09	38.00	0.02	7.64
30.062	27.15	38.06	0.02	7.64
30.092	27.15	38.06	-0.10	7.52
30.122	27.15	38.06	-0.10	7.52
30.152	27.06	37.98	-0.10	7.52
30.181	27.06	37.98	0.01	7.63
30.211	27.06	37.98	0.01	7.63
30.241	27.24	38.15	0.01	7.63
30.271	27.24	38.15	-0.07	7.55
30.300	27.24	38.15	-0.07	7.55
30.330	27.15	38.06	-0.07	7.55
30.360	27.15	38.06	-0.04	7.57
30.390	27.15	38.06	-0.04	7.57
30.420	27.15	38.06	-0.04	7.57
30.449	27.15	38.06	0.02	7.64
30.479	27.15	38.06	0.02	7.64
30.509	27.15	38.07	0.02	7.64
30.539	27.15	38.07	-0.09	7.52
30.568	27.15	38.07	-0.09	7.52
30.598	27.12	38.03	-0.09	7.52
30.628	27.12	38.03	0.01	7.63
30.658	27.12	38.03	0.01	7.63
30.687	27.25	38.16	0.01	7.63
30.717	27.25	38.16	-0.07	7.55
30.747	27.25	38.16	-0.07	7.55
30.777	27.17	38.08	-0.07	7.55
30.806	27.17	38.08	-0.04	7.57
30.836	27.17	38.08	-0.04	7.57
30.866	27.27	38.18	-0.04	7.57
30.896	27.27	38.18	0.02	7.64
30.925	27.27	38.18	0.02	7.64
30.955	27.19	38.10	0.02	7.64
30.985	27.19	38.10	-0.09	7.52
31.015	27.19	38.10	-0.09	7.52
31.045	27.19	38.10	-0.09	7.52
31.074	27.19	38.10	0.01	7.63
31.104	27.19	38.10	0.01	7.63
31.134	27.25	38.16	0.01	7.63
31.164	27.25	38.16	-0.06	7.55
31.193	27.25	38.16	-0.06	7.55
31.223	27.37	38.28	-0.06	7.55
31.253	27.37	38.28	-0.05	7.57
31.283	27.37	38.28	-0.05	7.57
31.312	27.33	38.24	-0.05	7.57
31.342	27.33	38.24	0.03	7.64
31.372	27.33	38.24	0.03	7.64
31.402	27.31	38.22	0.03	7.64
31.431	27.31	38.22	-0.09	7.52
31.461	27.31	38.22	-0.09	7.52
31.491	27.30	38.21	-0.09	7.52
31.521	27.30	38.21	0.01	7.63
31.550	27.30	38.21	0.01	7.63
31.580	27.50	38.41	0.01	7.63
31.610	27.50	38.41	-0.06	7.55
31.640	27.50	38.41	-0.06	7.55
31.670	27.50	38.41	-0.06	7.55
31.699	27.50	38.41	-0.04	7.57
31.729	27.50	38.41	-0.04	7.57
31.759	27.45	38.36	-0.04	7.57
31.789	27.45	38.36	0.03	7.64
31.818	27.45	38.36	0.03	7.64
31.848	27.49	38.40	0.03	7.64
31.878	27.49	38.40	-0.09	7.53
31.908	27.49	38.40	-0.09	7.53
31.937	27.41	38.33	-0.09	7.53
31.967	27.41	38.33	0.01	7.63
31.997	27.41	38.33	0.01	7.63
32.027	27.52	38.43	0.01	7.63
32.056	27.52	38.43	-0.06	7.55
32.086	27.52	38.43	-0.06	7.55
32.116	27.45	38.36	-0.06	7.55
32.146	27.45	38.36	-0.05	7.57
32.175	27.45	38.36	-0.05	7.57
32.205	27.29	38.20	-0.05	7.57
32.235	27.29	38.20	0.02	7.64
32.265	27.29	38.20	0.02	7.64
32.295	27.25	38.16	0.02	7.64
32.324	27.25	38.16	-0.09	7.52
32.354	27.25	38.16	-0.09	7.52
32.384	27.31	38.22	-0.09	7.52
32.414	27.31	38.22	0.01	7.63
32.443	27.31	38.22	0.01	7.63
32.473	27.42	38.34	0.01	7.63
32.503	27.42	38.34	-0.06	7.55
32.533	27.42	38.34	-0.06	7.55
32.562	27.27	38.18	-0.06	7.55
32.592	27.27	38.18	-0.05	7.57
32.622	27.27	38.18	-0.05	7.57
32.652	27.31	38.22	-0.05	7.57
32.681	27.31	38.22	0.03	7.64
32.711	27.31	38.22	0.03	7.64
32.741	27.39	38.30	0.03	7.64
32.771	27.39	38.30	-0.10	7.52
32.800	27.39	38.30	-0.10	7.52
32.830	27.29	38.20	-0.10	7.52
32.860	27.29	38.20	0.01	7.63
32.890	27.29	38.20	0.01	7.63
32.919	27.32	38.23	0.01	7.63
32.949	27.32	38.23	-0.06	7.55
32.979	27.32	38.23	-0.06	7.55
33.009	27.31	38.22	-0.06	7.55
33.038	27.31	38.22	-0.05	7.57
33.068	27.31	38.22	-0.05	7.57
33.098	27.25	38.16	-0.05	7.57
33.128	27.25	38.16	0.03	7.64
33.158	27.25	38.16	0.03	7.64
33.187	27.32	38.23	0.03	7.64
33.217	27.32	38.23	-0.09	7.52
33.247	27.32	38.23	-0.09	7.52
33.277	27.30	38.21	-0.09	7.52
33.306	27.30	38.21	0.01	7.63
33.336	27.30	38.21	0.01	7.63
33.366	27.35	38.26	0.01	7.63
33.396	27.35	38.26	-0.06	7.55
33.425	27.35	38.26	-0.06	7.55
33.455	27.23	38.14	-0.06	7.55
33.485	27.23	38.14	-0.05	7.57
33.515	27.23	38.14	-0.05	7.57
33.544	27.21	38.12	-0.05	7.57
33.574	27.21	38.12	0.02	7.64
33.604	27.21	38.12	0.02	7.64
33.634	27.11	38.03	0.02	7.64
33.663	27.11	38.03	-0.09	7.52
33.693	27.11	38.03	-0.09	7.52
33.723	27.09	38.00	-0.09	7.52
33.753	27.09	38.00	0.01	7.63
33.782	27.09	38.00	0.01	7.63
33.812	27.14	38.05	0.01	7.63
33.842	27.14	38.05	-0.06	7.55
33.872	27.14	38.05	-0.06	7.55
33.902	27.17	38.08	-0.06	7.55
33.931	27.17	38.08	-0.05	7.57
33.961	27.17	38.08	-0.05	7.57
33.991	27.16	38.07	-0.05	7.57
34.021	27.16	38.07	0.03	7.64
34.050	27.16	38.07	0.03	7.64
34.080	27.17	38.09	0.03	7.64
34.110	27.17	38.09	-0.09	7.52
34.140	27.17	38.09	-0.09	7.52
34.169	27.06	37.97	-0.09	7.52
34.199	27.06	37.97	0.01	7.63
34.229	27.06	37.97	0.01	7.63
34.259	27.16	38.07	0.01	7.63
34.288	27.16	38.07	-0.06	7.55
34.318	27.16	38.07	-0.06	7.55
34.348	27.14	38.05	-0.06	7.55
34.378	27.14	38.05	-0.05	7.56
34.407	27.14	38.05	-0.05	7.56
34.437	27.09	38.00	-0.05	7.56
34.467	27.09	38.00	0.03	7.64
34.497	27.09	38.00	0.03	7.64
34.526	27.10	38.01	0.03	7.64
34.556	27.10	38.01	-0.10	7.52
34.586	27.10	38.01	-0.10	7.52
34.616	27.13	38.04	-0.10	7.52
34.646	27.13	38.04	0.01	7.63
34.675	27.13	38.04	0.01	7.63
34.705	27.16	38.07	0.01	7.63
34.735	27.16	38.07	-0.06	7.55
34.765	27.16	38.07	-0.06	7.55
34.794	27.14	38.05	-0.06	7.55
34.824	27.14	38.05	-0.05	7.56
34.854	27.14	38.05	-0.05	7.56
34.884	27.06	37.97	-0.05	7.56
34.913	27.06	37.97	0.02	7.64
34.943	27.06	37.97	0.02	7.64
34.973	27.11	38.02	0.02	7.64
35.003	27.11	38.02	-0.10	7.52
35.032	27.11	38.02	-0.10	7.52
35.062	27.05	37.96	-0.10	7.52
35.092	27.05	37.96	0.01	7.63
35.122	27.05	37.96	0.01	7.63
35.151	27.25	38.16	0.01	7.63
35.181	27.25	38.16	-0.06	7.56
35.211	27.25	38.16	-0.06	7.56
35.241	27.17	38.09	-0.06	7.56
35.271	27.17	38.09	-0.05	7.56
35.300	27.17	38.09	-0.05	7.56
35.330	27.23	38.14	-0.05	7.56
35.360	27.23	38.14	0.03	7.64
35.390	27.23	38.14	0.03	7.64
35.419	27.15	38.07	0.03	7.64
35.449	27.15	38.07	-0.10	7.52
35.479	27.15	38.07	-0.10	7.52
35.509	27.12	38.03	-0.10	7.52
35.538	27.12	38.03	0.01	7.63
35.568	27.12	38.03	0.01	7.63
35.598	27.23	38.14	0.01	7.63
35.628	27.23	38.14	-0.06	7.56
35.657	27.23	38.14	-0.06	7.56
35.687	27.23	38.14	-0.06	7.56
35.717	27.23	38.14	-0.05	7.56
35.747	27.23	38.14	-0.05	7.56
35.776	27.10	38.02	-0.05	7.56
35.806	27.10	38.02	0.03	7.64
35.836	27.10	38.02	0.03	7.64
35.866	27.13	38.04	0.03	7.64
35.895	27.13	38.04	-0.10	7.52
35.925	27.13	38.04	-0.10	7.52
35.955	27.12	38.03	-0.10	7.52
35.985	27.12	38.03	0.01	7.63
36.015	27.12	38.03	0.01	7.63
36.044	27.26	38.17	0.01	7.63
36.074	27.26	38.17	-0.06	7.55
36.104	27.26	38.17	-0.06	7.55
36.134	27.32	38.23	-0.06	7.55
36.163	27.32	38.23	-0.05	7.56
36.193	27.32	38.23	-0.05	7.56
36.223	27.21	38.12	-0.05	7.56
36.253	27.21	38.12	0.03	7.64
36.282	27.21	38.12	0.03	7.64
36.312	27.20	38.11	0.03	7.64
36.342	27.20	38.11	-0.10	7.52
36.372	27.20	38.11	-0.10	7.52
36.401	27.13	38.04	-0.10	7.52
36.431	27.13	38.04	0.02	7.63
36.461	27.13	38.04	0.02	7.63
36.491	27.15	38.06	0.02	7.63
36.520	27.15	38.06	-0.06	7.56
36.550	27.15	38.06	-0.06	7.56
36.580	27.13	38.04	-0.06	7.56
36.610	27.13	38.04	-0.05	7.56
36.640	27.13	38.04	-0.05	7.56
36.669	27.09	38.00	-0.05	7.56
36.699	27.09	38.00	0.02	7.64
36.729	27.09	38.00	0.02	7.64
36.759	27.09	38.00	0.02	7.64
36.788	27.09	38.00	-0.10	7.52
36.818	27.09	38.00	-0.10	7.52
36.848	27.07	37.98	-0.10	7.52
36.878	27.07	37.98	0.01	7.63
36.907	27.07	37.98	0.01	7.63
36.937	27.20	38.11	0.01	7.63
36.967	27.20	38.11	-0.06	7.55
36.997	27.20	38.11	-0.06	7.55
37.026	27.18	38.09	-0.06	7.55
37.056	27.18	38.09	-0.05	7.56
37.086	27.18	38.09	-0.05	7.56
37.116	27.18	38.09	-0.05	7.56
37.145	27.18	38.09	0.03	7.64
37.175	27.18	38.09	0.03	7.64
37.205	27.19	38.10	0.03	7.64
37.235	27.19	38.10	-0.10	7.52
37.265	27.19	38.10	-0.10	7.52
37.294	27.10	38.01	-0.10	7.52
37.324	27.10	38.01	0.01	7.63
37.354	27.10	38.01	0.01	7.63
37.384	27.18	38.09	0.01	7.63
37.413	27.18	38.09	-0.06	7.55
37.443	27.18	38.09	-0.06	7.55
37.473	27.15	38.06	-0.06	7.55
37.503	27.15	38.06	-0.06	7.56
37.532	27.15	38.06	-0.06	7.56
37.562	27.14	38.05	-0.06	7.56
37.592	27.14	38.05	0.03	7.64
37.622	27.14	38.05	0.03	7.64
37.651	27.09	38.00	0.03	7.64
37.681	27.09	38.00	-0.10	7.52
37.711	27.09	38.00	-0.10	7.52
37.741	27.12	38.04	-0.10	7.52
37.770	27.12	38.04	0.01	7.63
37.800	27.12	38.04	0.01	7.63
37.830	27.25	38.16	0.01	7.63
37.860	27.25	38.16	-0.06	7.55
37.889	27.25	38.16	-0.06	7.55
37.919	27.20	38.12	-0.06	7.55
37.949	27.20	38.12	-0.06	7.56
37.979	27.20	38.12	-0.06	7.56
38.008	27.15	38.06	-0.06	7.56
38.038	27.15	38.06	0.02	7.64
38.068	27.15	38.06	0.02	7.64
38.098	27.20	38.11	0.02	7.64
38.127	27.20	38.11	-0.09	7.52
38.157	27.20	38.11	-0.09	7.52
38.187	27.15	38.06	-0.09	7.52
38.217	27.15	38.06	0.01	7.63
38.246	27.15	38.06	0.01	7.63
38.276	27.19	38.10	0.01	7.63
38.306	27.19	38.10	-0.06	7.56
38.336	27.19	38.10	-0.06	7.56
38.366	27.23	38.14	-0.06	7.56
38.395	27.23	38.14	-0.06	7.55
38.425	27.23	38.14	-0.06	7.55
38.455	27.12	38.03	-0.06	7.55
38.485	27.12	38.03	0.03	7.64
38.514	27.12	38.03	0.03	7.64
38.544	27.14	38.05	0.03	7.64
38.574	27.14	38.05	-0.09	7.52
38.604	27.14	38.05	-0.09	7.52
38.633	27.11	38.02	-0.09	7.52
38.663	27.11	38.02	0.01	7.62
38.693	27.11	38.02	0.01	7.62
38.723	27.29	38.20	0.01	7.62
38.752	27.29	38.20	-0.06	7.56
38.782	27.29	38.20	-0.06	7.56
38.812	27.27	38.19	-0.06	7.56
38.842	27.27	38.19	-0.06	7.55
38.871	27.27	38.19	-0.06	7.55
38.901	27.25	38.16	-0.06	7.55
38.931	27.25	38.16	0.03	7.64
38.961	27.25	38.16	0.03	7.64
38.990	27.14	38.05	0.03	7.64
39.020	27.14	38.05	-0.09	7.52
39.050	27.14	38.05	-0.09	7.52
39.080	27.19	38.10	-0.09	7.52
39.110	27.19	38.10	0.01	7.62
39.139	27.19	38.10	0.01	7.62
39.169	27.14	38.05	0.01	7.62
39.199	27.14	38.05	-0.06	7.56
39.229	27.14	38.05	-0.06	7.56
39.258	27.18	38.09	-0.06	7.56
39.288	27.18	38.09	-0.06	7.55
39.318	27.18	38.09	-0.06	7.55
39.348	27.16	38.07	-0.06	7.55
39.377	27.16	38.07	0.03	7.64
39.407	27.16	38.07	0.03	7.64
39.437	27.09	38.00	0.03	7.64
39.467	27.09	38.00	-0.09	7.52
39.496	27.09	38.00	-0.09	7.52
39.526	27.16	38.07	-0.09	7.52
39.556	27.16	38.07	0.01	7.62
39.586	27.16	38.07	0.01	7.62
39.615	27.28	38.19	0.01	7.62
39.645	27.28	38.19	-0.05	7.56
39.675	27.28	38.19	-0.05	7.56
39.705	27.36	38.27	-0.05	7.56
39.734	27.36	38.27	-0.06	7.55
39.764	27.36	38.27	-0.06	7.55
39.794	27.19	38.10	-0.06	7.55
39.824	27.19	38.10	0.03	7.64
39.854	27.19	38.10	0.03	7.64
39.883	27.21	38.12	0.03	7.64
39.913	27.21	38.12	-0.10	7.52
39.943	27.21	38.12	-0.10	7.52
39.973	27.18	38.09	-0.10	7.52
40.002	27.18	38.09	0.01	7.62
40.032	27.18	38.09	0.01	7.62
40.062	27.15	38.06	0.01	7.62
40.092	27.15	38.06	-0.06	7.56
40.121	27.15	38.06	-0.06	7.56
40.151	27.25	38.17	-0.06	7.56
40.181	27.25	38.17	-0.07	7.55
40.211	27.25	38.17	-0.07	7.55
40.240	27.20	38.11	-0.07	7.55
40.270	27.20	38.11	0.03	7.64
40.300	27.20	38.11	0.03	7.64
40.330	27.07	37.98	0.03	7.64
40.360	27.07	37.98	-0.09	7.52
40.389	27.07	37.98	-0.09	7.52
40.419	27.16	38.07	-0.09	7.52
40.449	27.16	38.07	0.01	7.62
40.479	27.16	38.07	0.01	7.62
40.508	27.19	38.10	0.01	7.62
40.538	27.19	38.10	-0.05	7.56
40.568	27.19	38.10	-0.05	7.56
40.598	27.25	38.16	-0.05	7.56
40.627	27.25	38.16	-0.07	7.54
40.657	27.25	38.16	-0.07	7.54
40.687	27.22	38.13	-0.07	7.54
40.717	27.22	38.13	0.02	7.64
40.746	27.22	38.13	0.02	7.64
40.776	27.16	38.07	0.02	7.64
40.806	27.16	38.07	-0.09	7.52
40.836	27.16	38.07	-0.09	7.52
40.865	27.17	38.08	-0.09	7.52
40.895	27.17	38.08	0.01	7.62
40.925	27.17	38.08	0.01	7.62
40.955	27.16	38.08	0.01	7.62
40.984	27.16	38.08	-0.05	7.57
41.014	27.16	38.08	-0.05	7.57
41.044	27.18	38.09	-0.05	7.57
41.074	27.18	38.09	-0.07	7.54
41.104	27.18	38.09	-0.07	7.54
41.133	27.17	38.09	-0.07	7.54
41.163	27.17	38.09	0.03	7.65
41.193	27.17	38.09	0.03	7.65
41.223	27.09	38.00	0.03	7.65
41.252	27.09	38.00	-0.10	7.52
41.282	27.09	38.00	-0.10	7.52
41.312	27.11	38.02	-0.10	7.52
41.342	27.11	38.02	0.00	7.62
41.371	27.11	38.02	0.00	7.62
41.401	27.15	38.06	0.00	7.62
41.431	27.15	38.06	-0.04	7.57
41.461	27.15	38.06	-0.04	7.57
41.491	27.24	38.15	-0.04	7.57
41.520	27.24	38.15	-0.08	7.54
41.550	27.24	38.15	-0.08	7.54
41.580	27.25	38.16	-0.08	7.54
41.610	27.25	38.16	0.03	7.64
41.639	27.25	38.16	0.03	7.64
41.669	27.20	38.11	0.03	7.64
41.699	27.20	38.11	-0.09	7.53
41.729	27.20	38.11	-0.09	7.53
41.758	27.28	38.19	-0.09	7.53
41.788	27.28	38.19	0.00	7.62
41.818	27.28	38.19	0.00	7.62
41.848	27.16	38.07	0.00	7.62
41.877	27.16	38.07	-0.04	7.57
41.907	27.16	38.07	-0.04	7.57
41.937	27.26	38.18	-0.04	7.57
41.967	27.26	38.18	-0.08	7.54
41.996	27.26	38.18	-0.08	7.54
42.026	27.22	38.13	-0.08	7.54
42.056	27.22	38.13	0.03	7.64
42.086	27.22	38.13	0.03	7.64
42.115	27.19	38.10	0.03	7.64
42.145	27.19	38.10	-0.09	7.53
42.175	27.19	38.10	-0.09	7.53
42.205	27.19	38.10	-0.09	7.53
42.235	27.19	38.10	0.00	7.62
42.264	27.19	38.10	0.00	7.62
42.294	27.14	38.05	0.00	7.62
42.324	27.14	38.05	-0.04	7.57
42.354	27.14	38.05	-0.04	7.57
42.383	27.25	38.16	-0.04	7.57
42.413	27.25	38.16	-0.08	7.53
42.443	27.25	38.16	-0.08	7.53
42.473	27.16	38.07	-0.08	7.53
42.502	27.16	38.07	0.03	7.64
42.532	27.16	38.07	0.03	7.64
42.562	27.15	38.07	0.03	7.64
42.592	27.15	38.07	-0.09	7.53
42.621	27.15	38.07	-0.09	7.53
42.651	27.16	38.08	-0.09	7.53
42.681	27.16	38.08	-0.00	7.62
42.711	27.16	38.08	-0.00	7.62
42.740	27.15	38.06	-0.00	7.62
42.770	27.15	38.06	-0.04	7.58
42.800	27.15	38.06	-0.04	7.58
42.830	27.26	38.17	-0.04	7.58
42.859	27.26	38.17	-0.09	7.53
42.889	27.26	38.17	-0.09	7.53
42.919	27.28	38.19	-0.09	7.53
42.949	27.28	38.19	0.03	7.64
42.978	27.28	38.19	0.03	7.64
43.008	27.20	38.11	0.03	7.64
43.038	27.20	38.11	-0.09	7.53
43.068	27.20	38.11	-0.09	7.53
43.097	27.18	38.09	-0.09	7.53
43.127	27.18	38.09	0.00	7.62
43.157	27.18	38.09	0.00	7.62
43.187	27.17	38.09	0.00	7.62
43.217	27.17	38.09	-0.04	7.58
43.246	27.17	38.09	-0.04	7.58
43.276	27.25	38.16	-0.04	7.58
43.306	27.25	38.16	-0.09	7.53
43.336	27.25	38.16	-0.09	7.53
43.365	27.15	38.06	-0.09	7.53
43.395	27.15	38.06	0.03	7.64
43.425	27.15	38.06	0.03	7.64
43.455	27.12	38.03	0.03	7.64
43.484	27.12	38.03	-0.08	7.53
43.514	27.12	38.03	-0.08	7.53
43.544	27.13	38.04	-0.08	7.53
43.574	27.13	38.04	-0.00	7.61
43.603	27.13	38.04	-0.00	7.61
43.633	27.06	37.98	-0.00	7.61
43.663	27.06	37.98	-0.03	7.59
43.693	27.06	37.98	-0.03	7.59
43.722	27.13	38.04	-0.03	7.59
43.752	27.13	38.04	-0.09	7.52
43.782	27.13	38.04	-0.09	7.52
43.812	27.17	38.09	-0.09	7.52
43.841	27.17	38.09	0.03	7.65
43.871	27.17	38.09	0.03	7.65
43.901	27.09	38.00	0.03	7.65
43.931	27.09	38.00	-0.08	7.54
43.961	27.09	38.00	-0.08	7.54
43.990	27.11	38.02	-0.08	7.54
44.020	27.11	38.02	0.00	7.62
44.050	27.11	38.02	0.00	7.62
44.080	27.16	38.07	0.00	7.62
44.109	27.16	38.07	-0.03	7.59
44.139	27.16	38.07	-0.03	7.59
44.169	27.22	38.13	-0.03	7.59
44.199	27.22	38.13	-0.09	7.52
44.228	27.22	38.13	-0.09	7.52
44.258	27.17	38.09	-0.09	7.52
44.288	27.17	38.09	0.03	7.64
44.318	27.17	38.09	0.03	7.64
44.348	27.18	38.09	0.03	7.64
44.377	27.18	38.09	-0.08	7.53
44.407	27.18	38.09	-0.08	7.53
44.437	27.12	38.03	-0.08	7.53
44.467	27.12	38.03	-0.00	7.61
44.496	27.12	38.03	-0.00	7.61
44.526	27.14	38.05	-0.00	7.61
44.556	27.14	38.05	-0.02	7.60
44.586	27.14	38.05	-0.02	7.60
44.615	27.10	38.02	-0.02	7.60
44.645	27.10	38.02	-0.09	7.52
44.675	27.10	38.02	-0.09	7.52
44.705	27.17	38.08	-0.09	7.52
44.734	27.17	38.08	0.03	7.64
44.764	27.17	38.08	0.03	7.64
44.794	27.10	38.01	0.03	7.64
44.824	27.10	38.01	-0.08	7.54
44.853	27.10	38.01	-0.08	7.54
44.883	27.12	38.03	-0.08	7.54
44.913	27.12	38.03	-0.00	7.61
44.943	27.12	38.03	-0.00	7.61
44.972	27.09	38.00	-0.00	7.61
45.002	27.09	38.00	-0.01	7.60
45.032	27.09	38.00	-0.01	7.60
45.062	27.31	38.23	-0.01	7.60
45.092	27.31	38.23	-0.09	7.53
45.121	27.31	38.23	-0.09	7.53
45.151	27.20	38.11	-0.09	7.53
45.181	27.20	38.11	0.03	7.65
45.211	27.20	38.11	0.03	7.65
45.240	27.16	38.07	0.03	7.65
45.270	27.16	38.07	-0.08	7.54
45.300	27.16	38.07	-0.08	7.54
45.330	27.18	38.09	-0.08	7.54
45.359	27.18	38.09	-0.01	7.61
45.389	27.18	38.09	-0.01	7.61
45.419	27.12	38.03	-0.01	7.61
45.449	27.12	38.03	-0.01	7.60
45.478	27.12	38.03	-0.01	7.60
45.508	27.21	38.13	-0.01	7.60
45.538	27.21	38.13	-0.09	7.52
45.568	27.21	38.13	-0.09	7.52
45.597	27.27	38.18	-0.09	7.52
45.627	27.27	38.18	0.03	7.64
45.657	27.27	38.18	0.03	7.64
45.687	27.22	38.13	0.03	7.64
45.717	27.22	38.13	-0.08	7.54
45.746	27.22	38.13	-0.08	7.54
45.776	27.17	38.09	-0.08	7.54
45.806	27.17	38.09	-0.01	7.61
45.836	27.17	38.09	-0.01	7.61
45.865	27.20	38.12	-0.01	7.61
45.895	27.20	38.12	-0.01	7.61
45.925	27.20	38.12	-0.01	7.61
45.955	27.27	38.18	-0.01	7.61
45.984	27.27	38.18	-0.10	7.52
46.014	27.27	38.18	-0.10	7.52
46.044	27.20	38.11	-0.10	7.52
46.074	27.20	38.11	0.03	7.64
46.103	27.20	38.11	0.03	7.64
46.133	27.12	38.03	0.03	7.64
46.163	27.12	38.03	-0.08	7.54
46.193	27.12	38.03	-0.08	7.54
46.223	27.19	38.10	-0.08	7.54
46.252	27.19	38.10	-0.01	7.60
46.282	27.19	38.10	-0.01	7.60
46.312	27.17	38.08	-0.01	7.60
46.342	27.17	38.08	-0.00	7.62
46.371	27.17	38.08	-0.00	7.62
46.401	27.17	38.08	-0.00	7.62
46.431	27.17	38.08	-0.09	7.52
46.460	27.17	38.08	-0.09	7.52
46.490	27.27	38.18	-0.09	7.52
46.520	27.27	38.18	0.03	7.65
46.550	27.27	38.18	0.03	7.65
46.580	27.19	38.10	0.03	7.65
46.609	27.19	38.10	-0.07	7.54
46.639	27.19	38.10	-0.07	7.54
46.669	27.17	38.08	-0.07	7.54
46.699	27.17	38.08	-0.01	7.60
46.728	27.17	38.08	-0.01	7.60
46.758	27.17	38.08	-0.01	7.60
46.788	27.17	38.08	-0.00	7.62
46.818	27.17	38.08	-0.00	7.62
46.847	27.22	38.13	-0.00	7.62
46.877	27.22	38.13	-0.09	7.52
46.907	27.22	38.13	-0.09	7.52
46.937	27.26	38.17	-0.09	7.52
46.966	27.26	38.17	0.03	7.64
46.996	27.26	38.17	0.03	7.64
47.026	27.17	38.08	0.03	7.64
47.056	27.17	38.08	-0.07	7.54
47.085	27.17	38.08	-0.07	7.54
47.115	27.26	38.17	-0.07	7.54
47.145	27.26	38.17	-0.02	7.60
47.175	27.26	38.17	-0.02	7.60
47.204	27.17	38.08	-0.02	7.60
47.234	27.17	38.08	0.01	7.62
47.264	27.17	38.08	0.01	7.62
47.294	27.20	38.11	0.01	7.62
47.323	27.20	38.11	-0.09	7.52
47.353	27.20	38.11	-0.09	7.52
47.383	27.29	38.20	-0.09	7.52
47.413	27.29	38.20	0.02	7.64
47.442	27.29	38.20	0.02	7.64
47.472	27.19	38.10	0.02	7.64
47.502	27.19	38.10	-0.07	7.54
47.532	27.19	38.10	-0.07	7.54
47.561	27.21	38.12	-0.07	7.54
47.591	27.21	38.12	-0.01	7.60
47.621	27.21	38.12	-0.01	7.60
47.651	27.17	38.08	-0.01	7.60
47.680	27.17	38.08	0.01	7.63
47.710	27.17	38.08	0.01	7.63
47.740	27.33	38.24	0.01	7.63
47.770	27.33	38.24	-0.09	7.52
47.800	27.33	38.24	-0.09	7.52
47.829	27.36	38.27	-0.09	7.52
47.859	27.36	38.27	0.02	7.64
47.889	27.36	38.27	0.02	7.64
47.919	27.16	38.07	0.02	7.64
47.948	27.16	38.07	-0.07	7.54
47.978	27.16	38.07	-0.07	7.54
48.008	27.20	38.11	-0.07	7.54
48.038	27.20	38.11	-0.02	7.59
48.067	27.20	38.11	-0.02	7.59
48.097	27.21	38.13	-0.02	7.59
48.127	27.21	38.13	0.01	7.63
48.157	27.21	38.13	0.01	7.63
48.186	27.16	38.07	0.01	7.63
48.216	27.16	38.07	-0.10	7.52
48.246	27.16	38.07	-0.10	7.52
48.276	27.25	38.16	-0.10	7.52
48.305	27.25	38.16	0.03	7.64
48.335	27.25	38.16	0.03	7.64
48.365	27.20	38.12	0.03	7.64
48.395	27.20	38.12	-0.07	7.54
48.425	27.20	38.12	-0.07	7.54
48.454	27.22	38.13	-0.07	7.54
48.484	27.22	38.13	-0.03	7.59
48.514	27.22	38.13	-0.03	7.59
48.544	27.27	38.18	-0.03	7.59
48.573	27.27	38.18	0.01	7.63
48.603	27.27	38.18	0.01	7.63
48.633	27.27	38.18	0.01	7.63
48.663	27.27	38.18	-0.10	7.52
48.692	27.27	38.18	-0.10	7.52
48.722	27.32	38.23	-0.10	7.52
48.752	27.32	38.23	0.02	7.64
48.782	27.32	38.23	0.02	7.64
48.811	27.27	38.18	0.02	7.64
48.841	27.27	38.18	-0.07	7.55
48.871	27.27	38.18	-0.07	7.55
48.901	27.14	38.05	-0.07	7.55
48.930	27.14	38.05	-0.03	7.59
48.960	27.14	38.05	-0.03	7.59
48.990	27.20	38.11	-0.03	7.59
49.020	27.20	38.11	0.02	7.64
49.050	27.20	38.11	0.02	7.64
49.079	27.16	38.07	0.02	7.64
49.109	27.16	38.07	-0.10	7.52
49.139	27.16	38.07	-0.10	7.52
49.169	27.29	38.20	-0.10	7.52
49.198	27.29	38.20	0.02	7.64
49.228	27.29	38.20	0.02	7.64
49.258	27.20	38.11	0.02	7.64
49.288	27.20	38.11	-0.07	7.55
49.317	27.20	38.11	-0.07	7.55
49.347	27.22	38.13	-0.07	7.55
49.377	27.22	38.13	-0.03	7.58
49.407	27.22	38.13	-0.03	7.58
49.436	27.18	38.09	-0.03	7.58
49.466	27.18	38.09	0.02	7.64
49.496	27.18	38.09	0.02	7.64
49.526	27.13	38.04	0.02	7.64
49.555	27.13	38.04	-0.09	7.52
49.585	27.13	38.04	-0.09	7.52
49.615	27.26	38.17	-0.09	7.52
49.645	27.26	38.17	0.02	7.64
49.675	27.26	38.17	0.02	7.64
49.704	27.15	38.06	0.02	7.64
49.734	27.15	38.06	-0.07	7.55
49.764	27.15	38.06	-0.07	7.55
49.794	27.19	38.10	-0.07	7.55
49.823	27.19	38.10	-0.04	7.58
49.853	27.19	38.10	-0.04	7.58
49.883	27.19	38.10	-0.04	7.58
49.913	27.19	38.10	0.03	7.64
49.942	27.19	38.10	0.03	7.64
49.972	27.10	38.01	0.03	7.64
50.002	27.10	38.01	-0.10	7.52
50.032	27.10	38.01	-0.10	7.52
50.061	27.21	38.12	-0.10	7.52
50.091	27.21	38.12	0.01	7.63
50.121	27.21	38.12	0.01	7.63
50.151	27.23	38.14	0.01	7.63
50.181	27.23	38.14	-0.07	7.55
50.210	27.23	38.14	-0.07	7.55
50.240	27.15	38.06	-0.07	7.55
50.270	27.15	38.06	-0.05	7.57
50.300	27.15	38.06	-0.05	7.57
50.329	27.17	38.08	-0.05	7.57
50.359	27.17	38.08	0.03	7.64
50.389	27.17	38.08	0.03	7.64
50.419	27.13	38.04	0.03	7.64
50.448	27.13	38.04	-0.10	7.52
50.478	27.13	38.04	-0.10	7.52
50.508	27.25	38.16	-0.10	7.52
50.538	27.25	38.16	0.01	7.63
50.567	27.25	38.16	0.01	7.63
50.597	27.24	38.15	0.01	7.63
50.627	27.24	38.15	-0.06	7.56
50.657	27.24	38.15	-0.06	7.56
50.686	27.17	38.08	-0.06	7.56
50.716	27.17	38.08	-0.05	7.57
50.746	27.17	38.08	-0.05	7.57
50.776	27.17	38.08	-0.05	7.57
50.806	27.17	38.08	0.02	7.64
50.835	27.17	38.08	0.02	7.64
50.865	27.14	38.05	0.02	7.64
50.895	27.14	38.05	-0.09	7.52
50.925	27.14	38.05	-0.09	7.52
50.954	27.20	38.11	-0.09	7.52
50.984	27.20	38.11	0.02	7.63
51.014	27.20	38.11	0.02	7.63
51.044	27.21	38.12	0.02	7.63
51.073	27.21	38.12	-0.06	7.55
51.103	27.21	38.12	-0.06	7.55
51.133	27.17	38.09	-0.06	7.55
51.163	27.17	38.09	-0.06	7.56
51.192	27.17	38.09	-0.06	7.56
51.222	27.15	38.06	-0.06	7.56
51.252	27.15	38.06	0.03	7.65
51.282	27.15	38.06	0.03	7.65
51.312	27.10	38.01	0.03	7.65
51.341	27.10	38.01	-0.09	7.52
51.371	27.10	38.01	-0.09	7.52
51.401	27.22	38.13	-0.09	7.52
51.431	27.22	38.13	0.01	7.62
51.460	27.22	38.13	0.01	7.62
51.490	27.22	38.13	0.01	7.62
51.520	27.22	38.13	-0.05	7.56
51.550	27.22	38.13	-0.05	7.56
51.579	27.15	38.06	-0.05	7.56
51.609	27.15	38.06	-0.06	7.55
51.639	27.15	38.06	-0.06	7.55
51.669	27.20	38.11	-0.06	7.55
51.698	27.20	38.11	0.03	7.64
51.728	27.20	38.11	0.03	7.64
51.758	27.11	38.02	0.03	7.64
51.788	27.11	38.02	-0.10	7.52
51.817	27.11	38.02	-0.10	7.52
51.847	27.20	38.12	-0.10	7.52
51.877	27.20	38.12	0.01	7.62
51.907	27.20	38.12	0.01	7.62
51.936	27.19	38.10	0.01	7.62
51.966	27.19	38.10	-0.06	7.56
51.996	27.19	38.10	-0.06	7.56
52.026	27.13	38.04	-0.06	7.56
52.056	27.13	38.04	-0.06	7.55
52.085	27.13	38.04	-0.06	7.55
52.115	27.10	38.01	-0.06	7.55
52.145	27.10	38.01	0.03	7.65
52.175	27.10	38.01	0.03	7.65
52.204	27.14	38.05	0.03	7.65
52.234	27.14	38.05	-0.09	7.52
52.264	27.14	38.05	-0.09	7.52
52.294	27.23	38.14	-0.09	7.52
52.323	27.23	38.14	0.01	7.62
52.353	27.23	38.14	0.01	7.62
52.383	27.21	38.12	0.01	7.62
52.413	27.21	38.12	-0.05	7.56
52.442	27.21	38.12	-0.05	7.56
52.472	27.17	38.08	-0.05	7.56
52.502	27.17	38.08	-0.07	7.54
52.532	27.17	38.08	-0.07	7.54
52.561	27.12	38.04	-0.07	7.54
52.591	27.12	38.04	0.03	7.64
52.621	27.12	38.04	0.03	7.64
52.651	27.12	38.03	0.03	7.64
52.680	27.12	38.03	-0.09	7.52
52.710	27.12	38.03	-0.09	7.52
52.740	27.18	38.09	-0.09	7.52
52.770	27.18	38.09	0.01	7.62
52.799	27.18	38.09	0.01	7.62
52.829	27.20	38.11	0.01	7.62
52.859	27.20	38.11	-0.05	7.57
52.889	27.20	38.11	-0.05	7.57
52.918	27.16	38.08	-0.05	7.57
52.948	27.16	38.08	-0.08	7.54
52.978	27.16	38.08	-0.08	7.54
53.008	27.12	38.03	-0.08	7.54
53.037	27.12	38.03	0.03	7.64
53.067	27.12	38.03	0.03	7.64
53.097	27.11	38.03	0.03	7.64
53.127	27.11	38.03	-0.09	7.52
53.157	27.11	38.03	-0.09	7.52
53.186	27.22	38.13	-0.09	7.52
53.216	27.22	38.13	0.01	7.62
53.246	27.22	38.13	0.01	7.62
53.276	27.18	38.09	0.01	7.62
53.305	27.18	38.09	-0.05	7.57
53.335	27.18	38.09	-0.05	7.57
53.365	27.15	38.06	-0.05	7.57
53.395	27.15	38.06	-0.08	7.54
53.424	27.15	38.06	-0.08	7.54
53.454	27.10	38.01	-0.08	7.54
53.484	27.10	38.01	0.03	7.64
53.514	27.10	38.01	0.03	7.64
53.543	27.12	38.03	0.03	7.64
53.573	27.12	38.03	-0.09	7.53
53.603	27.12	38.03	-0.09	7.53
53.633	27.14	38.05	-0.09	7.53
53.662	27.14	38.05	0.00	7.62
53.692	27.14	38.05	0.00	7.62
53.722	27.18	38.09	0.00	7.62
53.752	27.18	38.09	-0.05	7.57
53.781	27.18	38.09	-0.05	7.57
53.811	27.10	38.02	-0.05	7.57
53.841	27.10	38.02	-0.09	7.53
53.871	27.10	38.02	-0.09	7.53
53.901	27.10	38.01	-0.09	7.53
53.930	27.10	38.01	0.03	7.65
53.960	27.10	38.01	0.03	7.65
53.990	27.11	38.02	0.03	7.65
54.020	27.11	38.02	-0.09	7.52
54.049	27.11	38.02	-0.09	7.52
54.079	27.17	38.08	-0.09	7.52
54.109	27.17	38.08	0.00	7.62
54.139	27.17	38.08	0.00	7.62
54.168	27.23	38.14	0.00	7.62
54.198	27.23	38.14	-0.04	7.58
54.228	27.23	38.14	-0.04	7.58
54.258	27.19	38.10	-0.04	7.58
54.287	27.19	38.10	-0.09	7.53
54.317	27.19	38.10	-0.09	7.53
54.347	27.18	38.09	-0.09	7.53
54.377	27.18	38.09	0.03	7.65
54.406	27.18	38.09	0.03	7.65
54.436	27.19	38.10	0.03	7.65
54.466	27.19	38.10	-0.09	7.53
54.496	27.19	38.10	-0.09	7.53
54.526	27.10	38.01	-0.09	7.53
54.555	27.10	38.01	-0.00	7.62
54.585	27.10	38.01	-0.00	7.62
54.615	27.26	38.17	-0.00	7.62
54.644	27.26	38.17	-0.03	7.58
54.674	27.26	38.17	-0.03	7.58
54.704	27.14	38.05	-0.03	7.58
54.734	27.14	38.05	-0.09	7.52
54.763	27.14	38.05	-0.09	7.52
54.793	27.15	38.06	-0.09	7.52
54.823	27.15	38.06	0.03	7.64
54.853	27.15	38.06	0.03	7.64
54.883	27.24	38.15	0.03	7.64
54.912	27.24	38.15	-0.08	7.53
54.942	27.24	38.15	-0.08	7.53
54.972	27.25	38.17	-0.08	7.53
55.002	27.25	38.17	-0.00	7.61
55.031	27.25	38.17	-0.00	7.61
55.061	27.29	38.20	-0.00	7.61
55.091	27.29	38.20	-0.03	7.59
55.121	27.29	38.20	-0.03	7.59
55.150	27.19	38.10	-0.03	7.59
55.180	27.19	38.10	-0.09	7.52
55.210	27.19	38.10	-0.09	7.52
55.240	27.14	38.05	-0.09	7.52
55.269	27.14	38.05	0.03	7.65
55.299	27.14	38.05	0.03	7.65
55.329	27.20	38.11	0.03	7.65
55.359	27.20	38.11	-0.08	7.53
55.389	27.20	38.11	-0.08	7.53
55.418	27.18	38.09	-0.08	7.53
55.448	27.18	38.09	-0.00	7.62
55.478	27.18	38.09	-0.00	7.62
55.507	27.26	38.17	-0.00	7.62
55.537	27.26	38.17	-0.03	7.59
55.567	27.26	38.17	-0.03	7.59
55.597	27.21	38.12	-0.03	7.59
55.626	27.21	38.12	-0.09	7.52
55.656	27.21	38.12	-0.09	7.52
55.686	27.14	38.05	-0.09	7.52
55.716	27.14	38.05	0.03	7.64
55.746	27.14	38.05	0.03	7.64
55.775	27.20	38.11	0.03	7.64
55.805	27.20	38.11	-0.08	7.53
55.835	27.20	38.11	-0.08	7.53
55.865	27.17	38.08	-0.08	7.53
55.894	27.17	38.08	-0.00	7.61
55.924	27.17	38.08	-0.00	7.61
55.954	27.26	38.17	-0.00	7.61
55.984	27.26	38.17	-0.03	7.59
56.013	27.26	38.17	-0.03	7.59
56.043	27.12	38.04	-0.03	7.59
56.073	27.12	38.04	-0.09	7.52
56.103	27.12	38.04	-0.09	7.52
56.132	27.19	38.10	-0.09	7.52
56.162	27.19	38.10	0.03	7.64
56.192	27.19	38.10	0.03	7.64
56.222	27.20	38.11	0.03	7.64
56.251	27.20	38.11	-0.08	7.54
56.281	27.20	38.11	-0.08	7.54
56.311	27.20	38.11	-0.08	7.54
56.341	27.20	38.11	-0.00	7.61
56.370	27.20	38.11	-0.00	7.61
56.400	27.18	38.09	-0.00	7.61
56.430	27.18	38.09	-0.01	7.60
56.460	27.18	38.09	-0.01	7.60
56.489	27.15	38.06	-0.01	7.60
56.519	27.15	38.06	-0.10	7.52
56.549	27.15	38.06	-0.10	7.52
56.579	27.17	38.09	-0.10	7.52
56.608	27.17	38.09	0.03	7.64
56.638	27.17	38.09	0.03	7.64
56.668	27.17	38.08	0.03	7.64
56.698	27.17	38.08	-0.08	7.54
56.728	27.17	38.08	-0.08	7.54
56.757	27.21	38.12	-0.08	7.54
56.787	27.21	38.12	-0.00	7.61
56.817	27.21	38.12	-0.00	7.61
56.847	27.23	38.14	-0.00	7.61
56.876	27.23	38.14	-0.01	7.60
56.906	27.23	38.14	-0.01	7.60
56.936	27.19	38.10	-0.01	7.60
56.966	27.19	38.10	-0.09	7.52
56.995	27.19	38.10	-0.09	7.52
57.025	27.08	37.99	-0.09	7.52
57.055	27.08	37.99	0.03	7.65
57.085	27.08	37.99	0.03	7.65
57.114	27.14	38.05	0.03	7.65
57.144	27.14	38.05	-0.08	7.53
57.174	27.14	38.05	-0.08	7.53
57.204	27.11	38.02	-0.08	7.53
57.233	27.11	38.02	-0.01	7.61
57.263	27.11	38.02	-0.01	7.61
57.293	27.25	38.16	-0.01	7.61
57.323	27.25	38.16	-0.01	7.60
57.352	27.25	38.16	-0.01	7.60
57.382	27.21	38.12	-0.01	7.60
57.412	27.21	38.12	-0.09	7.52
57.442	27.21	38.12	-0.09	7.52
57.472	27.14	38.05	-0.09	7.52
57.501	27.14	38.05	0.02	7.64
57.531	27.14	38.05	0.02	7.64
57.561	27.17	38.08	0.02	7.64
57.591	27.17	38.08	-0.08	7.54
57.620	27.17	38.08	-0.08	7.54
57.650	27.16	38.07	-0.08	7.54
57.680	27.16	38.07	-0.01	7.60
57.710	27.16	38.07	-0.01	7.60
57.739	27.30	38.21	-0.01	7.60
57.769	27.30	38.21	-0.01	7.61
57.799	27.30	38.21	-0.01	7.61
57.829	27.19	38.10	-0.01	7.61
57.858	27.19	38.10	-0.09	7.52
57.888	27.19	38.10	-0.09	7.52
57.918	27.23	38.14	-0.09	7.52
57.948	27.23	38.14	0.03	7.64
57.977	27.23	38.14	0.03	7.64
58.007	27.18	38.09	0.03	7.64
58.037	27.18	38.09	-0.08	7.54
58.067	27.18	38.09	-0.08	7.54
58.096	27.14	38.05	-0.08	7.54
58.126	27.14	38.05	-0.01	7.60
58.156	27.14	38.05	-0.01	7.60
58.186	27.17	38.08	-0.01	7.60
58.216	27.17	38.08	-0.00	7.61
58.245	27.17	38.08	-0.00	7.61
58.275	27.17	38.08	-0.00	7.61
58.305	27.17	38.08	-0.10	7.52
58.335	27.17	38.08	-0.10	7.52
58.364	27.10	38.01	-0.10	7.52
58.394	27.10	38.01	0.03	7.64
58.424	27.10	38.01	0.03	7.64
58.454	27.13	38.04	0.03	7.64
58.483	27.13	38.04	-0.08	7.54
58.513	27.13	38.04	-0.08	7.54
58.543	27.15	38.06	-0.08	7.54
58.573	27.15	38.06	-0.01	7.60
58.602	27.15	38.06	-0.01	7.60
58.632	27.26	38.18	-0.01	7.60
58.662	27.26	38.18	-0.00	7.62
58.692	27.26	38.18	-0.00	7.62
58.721	27.17	38.08	-0.00	7.62
58.751	27.17	38.08	-0.10	7.52
58.781	27.17	38.08	-0.10	7.52
58.811	27.09	38.00	-0.10	7.52
58.840	27.09	38.00	0.02	7.64
58.870	27.09	38.00	0.02	7.64
58.900	27.16	38.07	0.02	7.64
58.930	27.16	38.07	-0.07	7.55
58.959	27.16	38.07	-0.07	7.55
58.989	27.09	38.00	-0.07	7.55
59.019	27.09	38.00	-0.01	7.60
59.049	27.09	38.00	-0.01	7.60
59.078	27.17	38.08	-0.01	7.60
59.108	27.17	38.08	0.00	7.62
59.138	27.17	38.08	0.00	7.62
59.168	27.26	38.17	0.00	7.62
59.198	27.26	38.17	-0.09	7.52
59.227	27.26	38.17	-0.09	7.52
59.257	27.13	38.04	-0.09	7.52
59.287	27.13	38.04	0.03	7.64
59.317	27.13	38.04	0.03	7.64
59.346	27.16	38.07	0.03	7.64
59.376	27.16	38.07	-0.07	7.54
59.406	27.16	38.07	-0.07	7.54
59.436	27.12	38.04	-0.07	7.54
59.465	27.12	38.04	-0.01	7.60
59.495	27.12	38.04	-0.01	7.60
59.525	27.26	38.17	-0.01	7.60
59.554	27.26	38.17	0.01	7.62
59.584	27.26	38.17	0.01	7.62
59.614	27.14	38.05	0.01	7.62
59.644	27.14	38.05	-0.09	7.52
59.674	27.14	38.05	-0.09	7.52
59.703	27.11	38.02	-0.09	7.52
59.733	27.11	38.02	0.02	7.64
59.763	27.11	38.02	0.02	7.64
59.793	27.20	38.11	0.02	7.64
59.822	27.20	38.11	-0.08	7.54
59.852	27.20	38.11	-0.08	7.54
59.882	27.13	38.04	-0.08	7.54
59.912	27.13	38.04	-0.02	7.59
59.941	27.13	38.04	-0.02	7.59
59.971	27.19	38.10	-0.02	7.59
60.001	27.19	38.10	0.01	7.62
60.031	27.19	38.10	0.01	7.62
60.060	27.14	38.05	0.01	7.62
60.090	27.14	38.05	-0.09	7.52
60.120	27.14	38.05	-0.09	7.52
60.150	27.15	38.06	-0.09	7.52
60.179	27.15	38.06	0.03	7.64
60.209	27.15	38.06	0.03	7.64
60.239	27.11	38.02	0.03	7.64
60.269	27.11	38.02	-0.07	7.54
60.299	27.11	38.02	-0.07	7.54
60.328	27.09	38.00	-0.07	7.54
60.358	27.09	38.00	-0.02	7.60
60.388	27.09	38.00	-0.02	7.60
60.418	27.20	38.11	-0.02	7.60
60.447	27.20	38.11	0.01	7.62
60.477	27.20	38.11	0.01	7.62
60.507	27.14	38.05	0.01	7.62
60.537	27.14	38.05	-0.10	7.52
60.566	27.14	38.05	-0.10	7.52
60.596	27.24	38.15	-0.10	7.52
60.626	27.24	38.15	0.02	7.64
60.656	27.24	38.15	0.02	7.64
60.685	27.19	38.10	0.02	7.64
60.715	27.19	38.10	-0.07	7.54
60.745	27.19	38.10	-0.07	7.54
60.775	27.10	38.01	-0.07	7.54
60.804	27.10	38.01	-0.02	7.59
60.834	27.10	38.01	-0.02	7.59
60.864	27.17	38.09	-0.02	7.59
60.894	27.17	38.09	0.01	7.63
60.924	27.17	38.09	0.01	7.63
60.953	27.24	38.15	0.01	7.63
60.983	27.24	38.15	-0.10	7.52
61.013	27.24	38.15	-0.10	7.52
61.043	27.21	38.12	-0.10	7.52
61.072	27.21	38.12	0.03	7.64
61.102	27.21	38.12	0.03	7.64
61.132	27.15	38.06	0.03	7.64
61.162	27.15	38.06	-0.07	7.54
61.191	27.15	38.06	-0.07	7.54
61.221	27.20	38.11	-0.07	7.54
61.251	27.20	38.11	-0.03	7.59
61.281	27.20	38.11	-0.03	7.59
61.310	27.28	38.19	-0.03	7.59
61.340	27.28	38.19	0.02	7.63
61.370	27.28	38.19	0.02	7.63
61.400	27.18	38.09	0.02	7.63
61.430	27.18	38.09	-0.10	7.52
61.459	27.18	38.09	-0.10	7.52
61.489	27.14	38.05	-0.10	7.52
61.519	27.14	38.05	0.02	7.64
61.549	27.14	38.05	0.02	7.64
61.578	27.15	38.06	0.02	7.64
61.608	27.15	38.06	-0.07	7.55
61.638	27.15	38.06	-0.07	7.55
61.668	27.11	38.03	-0.07	7.55
61.697	27.11	38.03	-0.03	7.58
61.727	27.11	38.03	-0.03	7.58
61.757	27.13	38.04	-0.03	7.58
61.787	27.13	38.04	0.02	7.63
61.816	27.13	38.04	0.02	7.63
61.846	27.16	38.07	0.02	7.63
61.876	27.16	38.07	-0.09	7.52
61.906	27.16	38.07	-0.09	7.52
61.935	27.15	38.07	-0.09	7.52
61.965	27.15	38.07	0.02	7.64
61.995	27.15	38.07	0.02	7.64
62.025	27.18	38.09	0.02	7.64
62.054	27.18	38.09	-0.07	7.55
62.084	27.18	38.09	-0.07	7.55
62.114	27.12	38.03	-0.07	7.55
62.144	27.12	38.03	-0.03	7.58
62.174	27.12	38.03	-0.03	7.58
62.203	27.30	38.22	-0.03	7.58
62.233	27.30	38.22	0.02	7.64
62.263	27.30	38.22	0.02	7.64
62.293	27.29	38.20	0.02	7.64
62.322	27.29	38.20	-0.10	7.52
62.352	27.29	38.20	-0.10	7.52
62.382	27.17	38.08	-0.10	7.52
62.412	27.17	38.08	0.02	7.63
62.441	27.17	38.08	0.02	7.63
62.471	27.14	38.05	0.02	7.63
62.501	27.14	38.05	-0.07	7.55
62.531	27.14	38.05	-0.07	7.55
62.560	27.25	38.16	-0.07	7.55
62.590	27.25	38.16	-0.04	7.58
62.620	27.25	38.16	-0.04	7.58
62.650	27.19	38.10	-0.04	7.58
62.679	27.19	38.10	0.02	7.64
62.709	27.19	38.10	0.02	7.64
62.739	27.25	38.16	0.02	7.64
62.769	27.25	38.16	-0.09	7.52
62.799	27.25	38.16	-0.09	7.52
62.828	27.15	38.06	-0.09	7.52
62.858	27.15	38.06	0.02	7.64
62.888	27.15	38.06	0.02	7.64
62.918	27.16	38.07	0.02	7.64
62.947	27.16	38.07	-0.06	7.55
62.977	27.16	38.07	-0.06	7.55
63.007	27.20	38.12	-0.06	7.55
63.037	27.20	38.12	-0.04	7.58
63.066	27.20	38.12	-0.04	7.58
63.096	27.22	38.13	-0.04	7.58
63.126	27.22	38.13	0.02	7.64
63.156	27.22	38.13	0.02	7.64
63.185	27.19	38.10	0.02	7.64
63.215	27.19	38.10	-0.09	7.52
63.245	27.19	38.10	-0.09	7.52
63.275	27.14	38.05	-0.09	7.52
63.305	27.14	38.05	0.02	7.63
63.334	27.14	38.05	0.02	7.63
63.364	27.16	38.08	0.02	7.63
63.394	27.16	38.08	-0.06	7.55
63.424	27.16	38.08	-0.06	7.55
63.453	27.16	38.07	-0.06	7.55
63.483	27.16	38.07	-0.04	7.57
63.513	27.16	38.07	-0.04	7.57
63.543	27.14	38.05	-0.04	7.57
63.572	27.14	38.05	0.03	7.64
63.602	27.14	38.05	0.03	7.64
63.632	27.22	38.13	0.03	7.64
63.662	27.22	38.13	-0.09	7.52
63.691	27.22	38.13	-0.09	7.52
63.721	27.15	38.06	-0.09	7.52
63.751	27.15	38.06	0.01	7.63
63.781	27.15	38.06	0.01	7.63
63.810	27.17	38.08	0.01	7.63
63.840	27.17	38.08	-0.06	7.55
63.870	27.17	38.08	-0.06	7.55
63.900	27.24	38.15	-0.06	7.55
63.929	27.24	38.15	-0.05	7.57
63.959	27.24	38.15	-0.05	7.57
63.989	27.19	38.10	-0.05	7.57
64.019	27.19	38.10	0.02	7.64
64.048	27.19	38.10	0.02	7.64
64.078	27.26	38.17	0.02	7.64
64.108	27.26	38.17	-0.09	7.52
64.138	27.26	38.17	-0.09	7.52
64.168	27.15	38.06	-0.09	7.52
64.197	27.15	38.06	0.02	7.63
64.227	27.15	38.06	0.02	7.63
64.257	27.13	38.04	0.02	7.63
64.287	27.13	38.04	-0.06	7.55
64.316	27.13	38.04	-0.06	7.55
64.346	27.21	38.12	-0.06	7.55
64.376	27.21	38.12	-0.05	7.57
64.406	27.21	38.12	-0.05	7.57
64.435	27.13	38.04	-0.05	7.57
64.465	27.13	38.04	0.02	7.64
64.495	27.13	38.04	0.02	7.64
64.525	27.20	38.12	0.02	7.64
64.554	27.20	38.12	-0.09	7.52
64.584	27.20	38.12	-0.09	7.52
64.614	27.19	38.10	-0.09	7.52
64.644	27.19	38.10	0.02	7.63
64.673	27.19	38.10	0.02	7.63
64.703	27.18	38.09	0.02	7.63
64.733	27.18	38.09	-0.06	7.56
64.763	27.18	38.09	-0.06	7.56
64.793	27.16	38.07	-0.06	7.56
64.822	27.16	38.07	-0.05	7.56
64.852	27.16	38.07	-0.05	7.56
64.882	27.14	38.05	-0.05	7.56
64.912	27.14	38.05	0.03	7.64
64.941	27.14	38.05	0.03	7.64
64.971	27.22	38.13	0.03	7.64
65.001	27.22	38.13	-0.10	7.52
65.031	27.22	38.13	-0.10	7.52
65.060	27.12	38.03	-0.10	7.52
65.090	27.12	38.03	0.01	7.63
65.120	27.12	38.03	0.01	7.63
65.150	27.15	38.06	0.01	7.63
65.179	27.15	38.06	-0.06	7.56
65.209	27.15	38.06	-0.06	7.56
65.239	27.21	38.13	-0.06	7.56
65.269	27.21	38.13	-0.05	7.56
65.299	27.21	38.13	-0.05	7.56
65.328	27.15	38.06	-0.05	7.56
65.358	27.15	38.06	0.03	7.64
65.388	27.15	38.06	0.03	7.64
65.418	27.26	38.17	0.03	7.64
65.447	27.26	38.17	-0.09	7.52
65.477	27.26	38.17	-0.09	7.52
65.507	27.24	38.15	-0.09	7.52
65.537	27.24	38.15	0.01	7.63
65.566	27.24	38.15	0.01	7.63
65.596	27.17	38.08	0.01	7.63
65.626	27.17	38.08	-0.06	7.56
65.656	27.17	38.08	-0.06	7.56
65.685	27.08	37.99	-0.06	7.56
65.715	27.08	37.99	-0.06	7.55
65.745	27.08	37.99	-0.06	7.55
65.775	27.09	38.00	-0.06	7.55
65.804	27.09	38.00	0.03	7.64
65.834	27.09	38.00	0.03	7.64
65.864	27.17	38.09	0.03	7.64
65.894	27.17	38.09	-0.10	7.52
65.924	27.17	38.09	-0.10	7.52
65.953	27.15	38.06	-0.10	7.52
65.983	27.15	38.06	0.01	7.63
66.013	27.15	38.06	0.01	7.63
66.043	27.11	38.02	0.01	7.63
66.072	27.11	38.02	-0.06	7.56
66.102	27.11	38.02	-0.06	7.56
66.132	27.17	38.08	-0.06	7.56
66.162	27.17	38.08	-0.06	7.55
66.191	27.17	38.08	-0.06	7.55
66.221	27.16	38.07	-0.06	7.55
66.251	27.16	38.07	0.03	7.64
66.281	27.16	38.07	0.03	7.64
66.310	27.23	38.14	0.03	7.64
66.340	27.23	38.14	-0.09	7.52
66.370	27.23	38.14	-0.09	7.52
66.400	27.19	38.10	-0.09	7.52
66.429	27.19	38.10	0.01	7.62
66.459	27.19	38.10	0.01	7.62
66.489	27.07	37.98	0.01	7.62
66.519	27.07	37.98	-0.06	7.56
66.548	27.07	37.98	-0.06	7.56
66.578	27.07	37.98	-0.06	7.56
66.608	27.07	37.98	-0.07	7.55
66.638	27.07	37.98	-0.07	7.55
66.668	27.07	37.98	-0.07	7.55
66.697	27.07	37.98	0.03	7.65
66.727	27.07	37.98	0.03	7.65
66.757	27.17	38.08	0.03	7.65
66.787	27.17	38.08	-0.09	7.52
66.816	27.17	38.08	-0.09	7.52
66.846	27.10	38.02	-0.09	7.52
66.876	27.10	38.02	0.00	7.62
66.906	27.10	38.02	0.00	7.62
66.935	27.12	38.03	0.00	7.62
66.965	27.12	38.03	-0.05	7.57
66.995	27.12	38.03	-0.05	7.57
67.025	27.14	38.05	-0.05	7.57
67.054	27.14	38.05	-0.07	7.54
67.084	27.14	38.05	-0.07	7.54
67.114	27.09	38.00	-0.07	7.54
67.144	27.09	38.00	0.03	7.64
67.174	27.09	38.00	0.03	7.64
67.203	27.21	38.12	0.03	7.64
67.233	27.21	38.12	-0.09	7.52
67.263	27.21	38.12	-0.09	7.52
67.293	27.30	38.21	-0.09	7.52
67.322	27.30	38.21	0.01	7.62
67.352	27.30	38.21	0.01	7.62
67.382	27.15	38.06	0.01	7.62
67.412	27.15	38.06	-0.05	7.57
67.441	27.15	38.06	-0.05	7.57
67.471	27.13	38.04	-0.05	7.57
67.501	27.13	38.04	-0.07	7.54
67.531	27.13	38.04	-0.07	7.54
67.560	27.12	38.03	-0.07	7.54
67.590	27.12	38.03	0.03	7.64
67.620	27.12	38.03	0.03	7.64
67.650	27.20	38.12	0.03	7.64
67.679	27.20	38.12	-0.09	7.53
67.709	27.20	38.12	-0.09	7.53
67.739	27.26	38.18	-0.09	7.53
67.769	27.26	38.18	0.01	7.62
67.799	27.26	38.18	0.01	7.62
67.828	27.14	38.05	0.01	7.62
67.858	27.14	38.05	-0.05	7.57
67.888	27.14	38.05	-0.05	7.57
67.918	27.24	38.15	-0.05	7.57
67.947	27.24	38.15	-0.08	7.54
67.977	27.24	38.15	-0.08	7.54
68.007	27.20	38.11	-0.08	7.54
68.037	27.20	38.11	0.03	7.64
68.066	27.20	38.11	0.03	7.64
68.096	27.27	38.18	0.03	7.64
68.126	27.27	38.18	-0.09	7.53
68.156	27.27	38.18	-0.09	7.53
68.185	27.28	38.19	-0.09	7.53
68.215	27.28	38.19	0.00	7.62
68.245	27.28	38.19	0.00	7.62
68.275	27.20	38.11	0.00	7.62
68.304	27.20	38.11	-0.04	7.57
68.334	27.20	38.11	-0.04	7.57
68.364	27.21	38.12	-0.04	7.57
68.394	27.21	38.12	-0.08	7.53
68.424	27.21	38.12	-0.08	7.53
68.453	27.18	38.09	-0.08	7.53
68.483	27.18	38.09	0.03	7.65
68.513	27.18	38.09	0.03	7.65
68.543	27.23	38.14	0.03	7.65
68.572	27.23	38.14	-0.09	7.52
68.602	27.23	38.14	-0.09	7.52
68.632	27.24	38.15	-0.09	7.52
68.662	27.24	38.15	0.00	7.62
68.691	27.24	38.15	0.00	7.62
68.721	27.23	38.14	0.00	7.62
68.751	27.23	38.14	-0.04	7.58
68.781	27.23	38.14	-0.04	7.58
68.810	27.17	38.08	-0.04	7.58
68.840	27.17	38.08	-0.08	7.53
68.870	27.17	38.08	-0.08	7.53
68.900	27.17	38.08	-0.08	7.53
68.929	27.17	38.08	0.03	7.65
68.959	27.17	38.08	0.03	7.65
68.989	27.16	38.08	0.03	7.65
69.019	27.16	38.08	-0.09	7.53
69.048	27.16	38.08	-0.09	7.53
69.078	27.29	38.20	-0.09	7.53
69.108	27.29	38.20	0.00	7.62
69.138	27.29	38.20	0.00	7.62
69.168	27.20	38.12	0.00	7.62
69.197	27.20	38.12	-0.03	7.58
69.227	27.20	38.12	-0.03	7.58
69.257	27.16	38.07	-0.03	7.58
69.287	27.16	38.07	-0.09	7.53
69.316	27.16	38.07	-0.09	7.53
69.346	27.14	38.05	-0.09	7.53
69.376	27.14	38.05	0.02	7.64
69.406	27.14	38.05	0.02	7.64
69.435	27.19	38.10	0.02	7.64
69.465	27.19	38.10	-0.09	7.53
69.495	27.19	38.10	-0.09	7.53
69.525	27.26	38.17	-0.09	7.53
69.554	27.26	38.17	-0.00	7.62
69.584	27.26	38.17	-0.00	7.62
69.614	27.17	38.08	-0.00	7.62
69.644	27.17	38.08	-0.03	7.59
69.673	27.17	38.08	-0.03	7.59
69.703	27.17	38.09	-0.03	7.59
69.733	27.17	38.09	-0.09	7.52
69.763	27.17	38.09	-0.09	7.52
69.792	27.20	38.11	-0.09	7.52
69.822	27.20	38.11	0.03	7.64
69.852	27.20	38.11	0.03	7.64
69.882	27.21	38.12	0.03	7.64
69.911	27.21	38.12	-0.09	7.53
69.941	27.21	38.12	-0.09	7.53
69.971	27.21	38.12	-0.09	7.53
70.001	27.21	38.12	-0.00	7.61
70.030	27.21	38.12	-0.00	7.61
70.060	27.16	38.07	-0.00	7.61
70.090	27.16	38.07	-0.03	7.59
70.120	27.16	38.07	-0.03	7.59
70.150	27.13	38.04	-0.03	7.59
70.179	27.13	38.04	-0.09	7.52
70.209	27.13	38.04	-0.09	7.52
70.239	27.22	38.13	-0.09	7.52
70.269	27.22	38.13	0.03	7.64
70.298	27.22	38.13	0.03	7.64
70.328	27.20	38.12	0.03	7.64
70.358	27.20	38.12	-0.08	7.53
70.388	27.20	38.12	-0.08	7.53
70.417	27.24	38.15	-0.08	7.53
70.447	27.24	38.15	-0.00	7.61
70.477	27.24	38.15	-0.00	7.61
70.507	27.13	38.04	-0.00	7.61
70.536	27.13	38.04	-0.02	7.59
70.566	27.13	38.04	-0.02	7.59
70.596	27.10	38.02	-0.02	7.59
70.626	27.10	38.02	-0.09	7.52
70.655	27.10	38.02	-0.09	7.52
70.685	27.18	38.09	-0.09	7.52
70.715	27.18	38.09	0.02	7.64
70.745	27.18	38.09	0.02	7.64
70.774	27.14	38.05	0.02	7.64
70.804	27.14	38.05	-0.08	7.53
70.834	27.14	38.05	-0.08	7.53
70.864	27.25	38.16	-0.08	7.53
70.894	27.25	38.16	-0.00	7.61
70.923	27.25	38.16	-0.00	7.61
70.953	27.19	38.10	-0.00	7.61
70.983	27.19	38.10	-0.01	7.60
71.013	27.19	38.10	-0.01	7.60
71.042	27.18	38.09	-0.01	7.60
71.072	27.18	38.09	-0.09	7.52
71.102	27.18	38.09	-0.09	7.52
71.132	27.12	38.03	-0.09	7.52
71.161	27.12	38.03	0.03	7.64
71.191	27.12	38.03	0.03	7.64
71.221	27.18	38.09	0.03	7.64
71.251	27.18	38.09	-0.08	7.54
71.280	27.18	38.09	-0.08	7.54
71.310	27.23	38.14	-0.08	7.54
71.340	27.23	38.14	-0.00	7.61
71.370	27.23	38.14	-0.00	7.61
71.399	27.19	38.10	-0.00	7.61
71.429	27.19	38.10	-0.01	7.61
71.459	27.19	38.10	-0.01	7.61
71.489	27.15	38.07	-0.01	7.61
71.519	27.15	38.07	-0.10	7.52
71.548	27.15	38.07	-0.10	7.52
71.578	27.20	38.11	-0.10	7.52
71.608	27.20	38.11	0.03	7.65
71.638	27.20	38.11	0.03	7.65
71.667	27.11	38.02	0.03	7.65
71.697	27.11	38.02	-0.07	7.54
71.727	27.11	38.02	-0.07	7.54
71.757	27.21	38.12	-0.07	7.54
71.786	27.21	38.12	-0.01	7.61
71.816	27.21	38.12	-0.01	7.61
71.846	27.21	38.12	-0.01	7.61
71.876	27.21	38.12	-0.00	7.61
71.905	27.21	38.12	-0.00	7.61
71.935	27.13	38.04	-0.00	7.61
71.965	27.13	38.04	-0.10	7.52
71.995	27.13	38.04	-0.10	7.52
72.025	27.13	38.04	-0.10	7.52
72.054	27.13	38.04	0.03	7.64
72.084	27.13	38.04	0.03	7.64
72.114	27.12	38.03	0.03	7.64
72.144	27.12	38.03	-0.07	7.54
72.173	27.12	38.03	-0.07	7.54
72.203	27.19	38.10	-0.07	7.54
72.233	27.19	38.10	-0.01	7.60
72.263	27.19	38.10	-0.01	7.60
72.292	27.14	38.05	-0.01	7.60
72.322	27.14	38.05	0.00	7.62
72.352	27.14	38.05	0.00	7.62
72.382	27.12	38.03	0.00	7.62
72.411	27.12	38.03	-0.09	7.52
72.441	27.12	38.03	-0.09	7.52
72.471	27.13	38.04	-0.09	7.52
72.501	27.13	38.04	0.03	7.64
72.530	27.13	38.04	0.03	7.64
72.560	27.15	38.07	0.03	7.64
72.590	27.15	38.07	-0.08	7.54
72.620	27.15	38.07	-0.08	7.54
72.649	27.25	38.16	-0.08	7.54
72.679	27.25	38.16	-0.02	7.60
72.709	27.25	38.16	-0.02	7.60
72.739	27.21	38.12	-0.02	7.60
72.769	27.21	38.12	0.00	7.62
72.798	27.21	38.12	0.00	7.62
72.828	27.15	38.06	0.00	7.62
72.858	27.15	38.06	-0.09	7.52
72.888	27.15	38.06	-0.09	7.52
72.917	27.16	38.07	-0.09	7.52
72.947	27.16	38.07	0.02	7.64
72.977	27.16	38.07	0.02	7.64
73.007	27.17	38.08	0.02	7.64
73.036	27.17	38.08	-0.07	7.54
73.066	27.17	38.08	-0.07	7.54
73.096	27.25	38.16	-0.07	7.54
73.126	27.25	38.16	-0.02	7.60
73.155	27.25	38.16	-0.02	7.60
73.185	27.24	38.15	-0.02	7.60
73.215	27.24	38.15	0.01	7.62
73.245	27.24	38.15	0.01	7.62
73.275	27.16	38.07	0.01	7.62
73.304	27.16	38.07	-0.09	7.52
73.334	27.16	38.07	-0.09	7.52
73.364	27.14	38.05	-0.09	7.52
73.394	27.14	38.05	0.02	7.63
73.423	27.14	38.05	0.02	7.63
73.453	27.25	38.16	0.02	7.63
73.483	27.25	38.16	-0.07	7.55
73.513	27.25	38.16	-0.07	7.55
73.542	27.17	38.08	-0.07	7.55
73.572	27.17	38.08	-0.02	7.59
73.602	27.17	38.08	-0.02	7.59
73.632	27.27	38.18	-0.02	7.59
73.661	27.27	38.18	0.01	7.63
73.691	27.27	38.18	0.01	7.63
73.721	27.15	38.06	0.01	7.63
73.751	27.15	38.06	-0.09	7.52
73.780	27.15	38.06	-0.09	7.52
73.810	27.17	38.09	-0.09	7.52
73.840	27.17	38.09	0.02	7.64
73.870	27.17	38.09	0.02	7.64
73.899	27.15	38.06	0.02	7.64
73.929	27.15	38.06	-0.07	7.54
73.959	27.15	38.06	-0.07	7.54
73.989	27.28	38.19	-0.07	7.54
74.018	27.28	38.19	-0.03	7.59
74.048	27.28	38.19	-0.03	7.59
74.078	27.20	38.12	-0.03	7.59
74.108	27.20	38.12	0.02	7.63
74.138	27.20	38.12	0.02	7.63
74.167	27.23	38.14	0.02	7.63
74.197	27.23	38.14	-0.09	7.52
74.227	27.23	38.14	-0.09	7.52
74.257	27.12	38.03	-0.09	7.52
74.286	27.12	38.03	0.02	7.63
74.316	27.12	38.03	0.02	7.63
74.346	27.20	38.11	0.02	7.63
74.376	27.20	38.11	-0.07	7.55
74.405	27.20	38.11	-0.07	7.55
74.435	27.17	38.09	-0.07	7.55
74.465	27.17	38.09	-0.04	7.58
74.495	27.17	38.09	-0.04	7.58
74.524	27.30	38.21	-0.04	7.58
74.554	27.30	38.21	0.02	7.64
74.584	27.30	38.21	0.02	7.64
74.614	27.13	38.04	0.02	7.64
74.643	27.13	38.04	-0.09	7.52
74.673	27.13	38.04	-0.09	7.52
74.703	9.00	19.91	-0.09	7.52
74.733	9.00	19.91	0.01	7.63
74.762	9.00	19.91	0.01	7.63
74.792	-11.76	-0.85	0.01	7.63
74.822	-11.76	-0.85	-0.07	7.55
74.852	-11.76	-0.85	-0.07	7.55
74.882	-5.24	5.67	-0.07	7.55
74.911	-5.24	5.67	-0.04	7.57
74.941	-5.24	5.67	-0.04	7.57
74.971	7.49	18.40	-0.04	7.57
75.001	7.49	18.40	0.02	7.64
75.030	7.49	18.40	0.02	7.64
75.060	2.90	13.82	0.02	7.64
75.090	2.90	13.82	-0.10	7.52
75.120	2.90	13.82	-0.10	7.52
75.150	-2.05	8.86	-0.10	7.52
75.179	-2.05	8.86	0.01	7.63
75.209	-2.05	8.86	0.01	7.63
75.239	-2.23	8.68	0.01	7.63
75.269	-2.23	8.68	-0.07	7.55
75.298	-2.23	8.68	-0.07	7.55
75.328	1.00	11.91	-0.07	7.55
75.358	1.00	11.91	-0.05	7.57
75.388	1.00	11.91	-0.05	7.57
75.417	2.41	13.33	-0.05	7.57
75.447	2.41	13.33	0.03	7.64
75.477	2.41	13.33	0.03	7.64
75.507	-0.05	10.86	0.03	7.64
75.537	-0.05	10.86	-0.10	7.52
75.566	-0.05	10.86	-0.10	7.52
75.596	-1.10	9.81	-0.10	7.52
75.626	-1.10	9.81	0.01	7.62
75.656	-1.10	9.81	0.01	7.62
75.685	0.31	11.22	0.01	7.62
75.715	0.31	11.22	-0.06	7.55
75.745	0.31	11.22	-0.06	7.55
75.775	0.97	11.88	-0.06	7.55
75.805	0.97	11.88	-0.06	7.56
75.834	0.97	11.88	-0.06	7.56
75.864	0.33	11.24	-0.06	7.56
75.894	0.33	11.24	0.02	7.64
75.924	0.33	11.24	0.02	7.64
75.953	-0.20	10.71	0.02	7.64
75.983	-0.20	10.71	-0.10	7.52
76.013	-0.20	10.71	-0.10	7.52
76.043	0.01	10.93	-0.10	7.52
76.072	0.01	10.93	0.01	7.62
76.102	0.01	10.93	0.01	7.62
76.132	0.43	11.34	0.01	7.62
76.162	0.43	11.34	-0.06	7.56
76.192	0.43	11.34	-0.06	7.56
76.221	0.30	11.21	-0.06	7.56
76.251	0.30	11.21	-0.06	7.55
76.281	0.30	11.21	-0.06	7.55
76.311	0.02	10.93	-0.06	7.55
76.340	0.02	10.93	0.03	7.64
76.370	0.02	10.93	0.03	7.64
76.400	0.10	11.01	0.03	7.64
76.430	0.10	11.01	-0.10	7.52
76.460	0.10	11.01	-0.10	7.52
76.489	0.26	11.17	-0.10	7.52
76.519	0.26	11.17	0.00	7.62
76.549	0.26	11.17	0.00	7.62
76.579	0.42	11.33	0.00	7.62
76.608	0.42	11.33	-0.06	7.56
76.638	0.42	11.33	-0.06	7.56
76.668	-0.08	10.83	-0.06	7.56
76.698	-0.08	10.83	-0.07	7.54
76.727	-0.08	10.83	-0.07	7.54
76.757	-0.06	10.85	-0.07	7.54
76.787	-0.06	10.85	0.02	7.64
76.817	-0.06	10.85	0.02	7.64
76.847	-0.04	10.87	0.02	7.64
76.876	-0.04	10.87	-0.09	7.52
76.906	-0.04	10.87	-0.09	7.52
76.936	1.11	12.03	-0.09	7.52
76.966	1.11	12.03	-0.00	7.62
76.995	1.11	12.03	-0.00	7.62
77.025	-0.02	10.89	-0.00	7.62
77.055	-0.02	10.89	-0.05	7.57
77.085	-0.02	10.89	-0.05	7.57
77.114	0.72	11.63	-0.05	7.57
77.144	0.72	11.63	-0.08	7.54
77.174	0.72	11.63	-0.08	7.54
77.204	-0.08	10.83	-0.08	7.54
77.233	-0.08	10.83	0.03	7.64
77.263	-0.08	10.83	0.03	7.64
77.293	0.37	11.28	0.03	7.64
77.323	0.37	11.28	-0.09	7.52
77.352	0.37	11.28	-0.09	7.52
77.382	0.31	11.22	-0.09	7.52
77.412	0.31	11.22	0.00	7.62
77.442	0.31	11.22	0.00	7.62
77.472	-0.09	10.82	0.00	7.62
77.501	-0.09	10.82	-0.05	7.57
77.531	-0.09	10.82	-0.05	7.57
77.561	0.28	11.19	-0.05	7.57
77.591	0.28	11.19	-0.09	7.53
77.620	0.28	11.19	-0.09	7.53
77.650	0.29	11.20	-0.09	7.53
77.680	0.29	11.20	0.03	7.64
77.710	0.29	11.20	0.03	7.64
77.740	0.52	11.43	0.03	7.64
77.769	0.52	11.43	-0.09	7.52
77.799	0.52	11.43	-0.09	7.52
77.829	0.33	11.24	-0.09	7.52
77.859	0.33	11.24	-0.00	7.62
77.888	0.33	11.24	-0.00	7.62
77.918	0.23	11.14	-0.00	7.62
77.948	0.23	11.14	-0.04	7.58
77.978	0.23	11.14	-0.04	7.58
78.007	0.14	11.05	-0.04	7.58
78.037	0.14	11.05	-0.09	7.52
78.067	0.14	11.05	-0.09	7.52
78.097	-0.05	10.86	-0.09	7.52
78.126	-0.05	10.86	0.03	7.64
78.156	-0.05	10.86	0.03	7.64
78.186	0.46	11.37	0.03	7.64
78.216	0.46	11.37	-0.09	7.53
78.245	0.46	11.37	-0.09	7.53
