Tempo(s)    P0(KPa) P0+Coluna(KPa)  P1(KPa) P1+Coluna(KPa)
0.032	-2.22	-2.22	-2.22	-2.22
0.064	8.91	8.91	-2.22	-2.22
0.096	8.91	8.91	7.47	7.47
0.128	8.91	8.91	7.47	7.47
0.160	8.99	8.99	7.47	7.47
0.192	8.99	8.99	7.51	7.51
0.224	8.99	8.99	7.51	7.51
0.256	8.99	8.99	7.51	7.51
0.288	8.99	8.99	7.47	7.47
0.320	8.99	8.99	7.47	7.47
0.352	8.99	8.99	7.47	7.47
0.384	8.99	8.99	7.56	7.56
0.416	8.99	8.99	7.56	7.56
0.448	8.99	8.99	7.56	7.56
0.480	8.99	8.99	7.47	7.47
0.512	8.99	8.99	7.47	7.47
0.544	8.99	8.99	7.47	7.47
0.576	8.99	8.99	7.53	7.53
0.608	8.99	8.99	7.53	7.53
0.640	8.99	8.99	7.53	7.53
0.672	0.00	8.99	-0.01	7.52
0.704	0.00	8.99	-0.01	7.52
0.736	-0.00	8.99	-0.01	7.52
0.768	-0.00	8.99	-0.07	7.46
0.800	-0.00	8.99	-0.07	7.46
0.832	0.00	8.99	-0.07	7.46
0.864	0.00	8.99	0.03	7.56
0.896	0.00	8.99	0.03	7.56
0.928	-0.00	8.99	0.03	7.56
0.960	-0.00	8.99	-0.06	7.47
0.992	-0.00	8.99	-0.06	7.47
1.024	-0.00	8.99	-0.06	7.47
1.056	-0.00	8.99	-0.00	7.53
1.088	-0.00	8.99	-0.00	7.53
1.120	-0.01	8.98	-0.00	7.53
1.152	-0.01	8.98	-0.01	7.52
1.184	-0.01	8.98	-0.01	7.52
1.216	-0.01	8.98	-0.01	7.52
1.248	-0.01	8.98	-0.07	7.46
1.280	-0.01	8.98	-0.07	7.46
1.312	-0.01	8.98	-0.07	7.46
1.344	-0.01	8.98	0.03	7.56
1.376	-0.01	8.98	0.03	7.56
1.408	-0.01	8.98	0.03	7.56
1.440	-0.01	8.98	-0.07	7.46
1.472	-0.01	8.98	-0.07	7.46
1.504	-0.01	8.98	-0.07	7.46
1.536	-0.01	8.98	-0.00	7.53
1.568	-0.01	8.98	-0.00	7.53
1.600	-0.01	8.98	-0.00	7.53
1.632	-0.01	8.98	-0.01	7.52
1.664	-0.01	8.98	-0.01	7.52
1.696	-0.01	8.98	-0.01	7.52
1.728	-0.01	8.98	-0.08	7.45
1.760	-0.01	8.98	-0.08	7.45
1.792	-0.02	8.97	-0.08	7.45
1.824	-0.02	8.97	0.03	7.56
1.856	-0.02	8.97	0.03	7.56
1.888	-0.02	8.97	0.03	7.56
1.920	-0.02	8.97	-0.07	7.47
1.952	-0.02	8.97	-0.07	7.47
1.984	-0.02	8.97	-0.07	7.47
2.016	-0.02	8.97	-0.00	7.53
2.048	-0.02	8.97	-0.00	7.53
2.080	-0.02	8.97	-0.00	7.53
2.112	-0.02	8.97	-0.01	7.53
2.144	-0.02	8.97	-0.01	7.53
2.176	-0.02	8.97	-0.01	7.53
2.208	-0.02	8.97	-0.08	7.45
2.240	-0.02	8.97	-0.08	7.45
2.272	-0.02	8.97	-0.08	7.45
2.304	-0.02	8.97	0.03	7.56
2.336	-0.02	8.97	0.03	7.56
2.368	-0.02	8.97	0.03	7.56
2.400	-0.02	8.97	-0.07	7.46
2.432	-0.02	8.97	-0.07	7.46
2.464	-0.02	8.97	-0.07	7.46
2.496	-0.02	8.97	-0.01	7.52
2.528	-0.02	8.97	-0.01	7.52
2.560	-0.03	8.96	-0.01	7.52
2.592	-0.03	8.96	-0.00	7.53
2.624	-0.03	8.96	-0.00	7.53
2.656	-0.02	8.97	-0.00	7.53
2.688	-0.02	8.97	-0.08	7.45
2.720	-0.02	8.97	-0.08	7.45
2.752	-0.02	8.97	-0.08	7.45
2.784	-0.02	8.97	0.02	7.55
2.816	-0.02	8.97	0.02	7.55
2.848	-0.02	8.97	0.02	7.55
2.880	-0.02	8.97	-0.07	7.46
2.912	-0.02	8.97	-0.07	7.46
2.944	-0.03	8.96	-0.07	7.46
2.976	-0.03	8.96	-0.01	7.52
3.008	-0.03	8.96	-0.01	7.52
3.040	-0.03	8.96	-0.01	7.52
3.072	-0.03	8.96	0.00	7.53
3.104	-0.03	8.96	0.00	7.53
3.136	-0.02	8.97	0.00	7.53
3.168	-0.02	8.97	-0.08	7.45
3.200	-0.02	8.97	-0.08	7.45
3.232	1.45	10.44	-0.08	7.45
3.264	1.45	10.44	0.03	7.56
3.296	1.45	10.44	0.03	7.56
3.328	14.16	23.15	0.03	7.56
3.360	14.16	23.15	-0.06	7.47
3.392	14.16	23.15	-0.06	7.47
3.424	19.48	28.47	-0.06	7.47
3.456	19.48	28.47	-0.01	7.52
3.488	19.48	28.47	-0.01	7.52
3.520	22.12	31.11	-0.01	7.52
3.552	22.12	31.11	0.01	7.54
3.584	22.12	31.11	0.01	7.54
3.616	23.33	32.32	0.01	7.54
3.648	23.33	32.32	-0.08	7.45
3.680	23.33	32.32	-0.08	7.45
3.712	24.05	33.04	-0.08	7.45
3.744	24.05	33.04	0.02	7.55
3.776	24.05	33.04	0.02	7.55
3.808	24.76	33.75	0.02	7.55
3.840	24.76	33.75	-0.06	7.47
3.872	24.76	33.75	-0.06	7.47
3.904	25.22	34.21	-0.06	7.47
3.936	25.22	34.21	-0.01	7.52
3.968	25.22	34.21	-0.01	7.52
4.000	25.35	34.34	-0.01	7.52
4.032	25.35	34.34	0.01	7.54
4.064	25.35	34.34	0.01	7.54
4.096	25.40	34.39	0.01	7.54
4.128	25.40	34.39	-0.08	7.45
4.160	25.40	34.39	-0.08	7.45
4.192	25.35	34.34	-0.08	7.45
4.224	25.35	34.34	0.02	7.55
4.256	25.35	34.34	0.02	7.55
4.288	25.39	34.38	0.02	7.55
4.320	25.39	34.38	-0.06	7.47
4.352	25.39	34.38	-0.06	7.47
4.384	25.48	34.47	-0.06	7.47
4.416	25.48	34.47	-0.01	7.52
4.448	25.48	34.47	-0.01	7.52
4.480	21.77	30.77	-0.01	7.52
4.512	21.77	30.77	0.01	7.54
4.544	21.77	30.77	0.01	7.54
4.576	8.72	17.71	0.01	7.54
4.608	8.72	17.71	-0.09	7.45
4.640	8.72	17.71	-0.09	7.45
4.672	6.82	15.81	-0.09	7.45
4.704	6.82	15.81	0.02	7.55
4.736	6.82	15.81	0.02	7.55
4.768	10.76	19.75	0.02	7.55
4.800	10.76	19.75	-0.07	7.47
4.832	10.76	19.75	-0.07	7.47
4.864	11.28	20.27	-0.07	7.47
4.896	11.28	20.27	-0.02	7.51
4.928	11.28	20.27	-0.02	7.51
4.960	9.80	18.79	-0.02	7.51
4.992	9.80	18.79	0.01	7.54
5.024	9.80	18.79	0.01	7.54
5.056	14.47	23.46	0.01	7.54
5.088	14.47	23.46	-0.08	7.45
5.120	14.47	23.46	-0.08	7.45
5.152	18.33	27.32	-0.08	7.45
5.184	18.33	27.32	0.02	7.55
5.216	18.33	27.32	0.02	7.55
5.248	22.69	31.68	0.02	7.55
5.280	22.69	31.68	-0.06	7.47
5.312	22.69	31.68	-0.06	7.47
5.344	24.29	33.28	-0.06	7.47
5.376	24.29	33.28	-0.02	7.51
5.408	24.29	33.28	-0.02	7.51
5.440	23.99	32.98	-0.02	7.51
5.472	23.99	32.98	0.01	7.54
5.504	23.99	32.98	0.01	7.54
5.536	23.49	32.48	0.01	7.54
5.568	23.49	32.48	-0.08	7.45
5.600	23.49	32.48	-0.08	7.45
5.632	23.40	32.39	-0.08	7.45
5.664	23.40	32.39	0.02	7.55
5.696	23.40	32.39	0.02	7.55
5.728	23.70	32.69	0.02	7.55
5.760	23.70	32.69	-0.06	7.47
5.792	23.70	32.69	-0.06	7.47
5.824	23.73	32.72	-0.06	7.47
5.856	23.73	32.72	-0.03	7.50
5.888	23.73	32.72	-0.03	7.50
5.920	23.83	32.82	-0.03	7.50
5.952	23.83	32.82	0.02	7.55
5.984	23.83	32.82	0.02	7.55
6.016	23.81	32.80	0.02	7.55
6.048	23.81	32.80	-0.08	7.45
6.080	23.81	32.80	-0.08	7.45
6.112	23.71	32.70	-0.08	7.45
6.144	23.71	32.70	0.01	7.55
6.176	23.71	32.70	0.01	7.55
6.208	23.64	32.63	0.01	7.55
6.240	23.64	32.63	-0.06	7.47
6.272	23.64	32.63	-0.06	7.47
6.304	23.81	32.80	-0.06	7.47
6.336	23.81	32.80	-0.03	7.50
6.368	23.81	32.80	-0.03	7.50
6.400	23.52	32.51	-0.03	7.50
6.432	23.52	32.51	0.02	7.55
6.464	23.52	32.51	0.02	7.55
6.496	23.67	32.66	0.02	7.55
6.528	23.67	32.66	-0.08	7.45
6.560	23.67	32.66	-0.08	7.45
6.592	24.33	33.32	-0.08	7.45
6.624	24.33	33.32	0.01	7.55
6.656	24.33	33.32	0.01	7.55
6.688	24.48	33.47	0.01	7.55
6.720	24.48	33.47	-0.06	7.48
6.752	24.48	33.47	-0.06	7.48
6.784	24.91	33.90	-0.06	7.48
6.816	24.91	33.90	-0.04	7.49
6.848	24.91	33.90	-0.04	7.49
6.880	25.30	34.29	-0.04	7.49
6.912	25.30	34.29	0.02	7.55
6.944	25.30	34.29	0.02	7.55
6.976	25.29	34.28	0.02	7.55
7.008	25.29	34.28	-0.08	7.45
7.040	25.29	34.28	-0.08	7.45
7.072	25.58	34.57	-0.08	7.45
7.104	25.58	34.57	0.01	7.54
7.136	25.58	34.57	0.01	7.54
7.168	25.87	34.86	0.01	7.54
7.200	25.87	34.86	-0.06	7.48
7.232	25.87	34.86	-0.06	7.48
7.264	25.99	34.98	-0.06	7.48
7.296	25.99	34.98	-0.04	7.49
7.328	25.99	34.98	-0.04	7.49
7.360	25.68	34.67	-0.04	7.49
7.392	25.68	34.67	0.02	7.55
7.424	25.68	34.67	0.02	7.55
7.456	26.02	35.01	0.02	7.55
7.488	26.02	35.01	-0.08	7.45
7.520	26.02	35.01	-0.08	7.45
7.552	26.76	35.75	-0.08	7.45
7.584	26.76	35.75	0.01	7.55
7.616	26.76	35.75	0.01	7.55
7.648	26.92	35.91	0.01	7.55
7.680	26.92	35.91	-0.05	7.48
7.712	26.92	35.91	-0.05	7.48
7.744	26.75	35.74	-0.05	7.48
7.776	26.75	35.74	-0.05	7.48
7.808	26.75	35.74	-0.05	7.48
7.840	26.79	35.78	-0.05	7.48
7.872	26.79	35.78	0.03	7.56
7.904	26.79	35.78	0.03	7.56
7.936	27.23	36.22	0.03	7.56
7.968	27.23	36.22	-0.08	7.45
8.000	27.23	36.22	-0.08	7.45
8.032	27.65	36.64	-0.08	7.45
8.064	27.65	36.64	0.01	7.55
8.096	27.65	36.64	0.01	7.55
8.128	27.81	36.80	0.01	7.55
8.160	27.81	36.80	-0.05	7.48
8.192	27.81	36.80	-0.05	7.48
8.224	27.41	36.40	-0.05	7.48
8.256	27.41	36.40	-0.05	7.48
8.288	27.41	36.40	-0.05	7.48
8.320	27.48	36.47	-0.05	7.48
8.352	27.48	36.47	0.03	7.56
8.384	27.48	36.47	0.03	7.56
8.416	27.72	36.71	0.03	7.56
8.448	27.72	36.71	-0.07	7.46
8.480	27.72	36.71	-0.07	7.46
8.512	27.41	36.40	-0.07	7.46
8.544	27.41	36.40	0.01	7.54
8.576	27.41	36.40	0.01	7.54
8.608	27.75	36.74	0.01	7.54
8.640	27.75	36.74	-0.04	7.49
8.672	27.75	36.74	-0.04	7.49
8.704	27.76	36.75	-0.04	7.49
8.736	27.76	36.75	-0.05	7.48
8.768	27.76	36.75	-0.05	7.48
8.800	27.71	36.70	-0.05	7.48
8.832	27.71	36.70	0.02	7.55
8.864	27.71	36.70	0.02	7.55
8.896	27.61	36.60	0.02	7.55
8.928	27.61	36.60	-0.08	7.45
8.960	27.61	36.60	-0.08	7.45
8.992	27.47	36.46	-0.08	7.45
9.024	27.47	36.46	0.01	7.54
9.056	27.47	36.46	0.01	7.54
9.088	27.52	36.51	0.01	7.54
9.120	27.52	36.51	-0.04	7.49
9.152	27.52	36.51	-0.04	7.49
9.184	27.50	36.49	-0.04	7.49
9.216	27.50	36.49	-0.05	7.48
9.248	27.50	36.49	-0.05	7.48
9.280	27.44	36.43	-0.05	7.48
9.312	27.44	36.43	0.03	7.56
9.344	27.44	36.43	0.03	7.56
9.376	27.34	36.33	0.03	7.56
9.408	27.34	36.33	-0.08	7.45
9.440	27.34	36.33	-0.08	7.45
9.472	27.20	36.19	-0.08	7.45
9.504	27.20	36.19	0.01	7.55
9.536	27.20	36.19	0.01	7.55
9.568	27.21	36.20	0.01	7.55
9.600	27.21	36.20	-0.04	7.50
9.632	27.21	36.20	-0.04	7.50
9.664	27.18	36.17	-0.04	7.50
9.696	27.18	36.17	-0.06	7.47
9.728	27.18	36.17	-0.06	7.47
9.760	27.17	36.16	-0.06	7.47
9.792	27.17	36.16	0.03	7.56
9.824	27.17	36.16	0.03	7.56
9.856	27.10	36.09	0.03	7.56
9.888	27.10	36.09	-0.07	7.46
9.920	27.10	36.09	-0.07	7.46
9.952	27.03	36.02	-0.07	7.46
9.984	27.03	36.02	0.01	7.55
10.016	27.03	36.02	0.01	7.55
10.048	26.95	35.94	0.01	7.55
10.080	26.95	35.94	-0.03	7.50
10.112	26.95	35.94	-0.03	7.50
10.144	26.73	35.72	-0.03	7.50
10.176	26.73	35.72	-0.06	7.47
10.208	26.73	35.72	-0.06	7.47
10.240	26.49	35.48	-0.06	7.47
10.272	26.49	35.48	0.03	7.57
10.304	26.49	35.48	0.03	7.57
10.336	26.47	35.46	0.03	7.57
10.368	26.47	35.46	-0.07	7.46
10.400	26.47	35.46	-0.07	7.46
10.432	26.40	35.39	-0.07	7.46
10.464	26.40	35.39	0.01	7.54
10.496	26.40	35.39	0.01	7.54
10.528	26.30	35.29	0.01	7.54
10.560	26.30	35.29	-0.03	7.50
10.592	26.30	35.29	-0.03	7.50
10.624	26.38	35.37	-0.03	7.50
10.656	26.38	35.37	-0.06	7.47
10.688	26.38	35.37	-0.06	7.47
10.720	26.47	35.46	-0.06	7.47
10.752	26.47	35.46	0.03	7.56
10.784	26.47	35.46	0.03	7.56
10.816	26.49	35.48	0.03	7.56
10.848	26.49	35.48	-0.07	7.46
10.880	26.49	35.48	-0.07	7.46
10.912	26.54	35.53	-0.07	7.46
10.944	26.54	35.53	0.01	7.54
10.976	26.54	35.53	0.01	7.54
11.008	26.72	35.71	0.01	7.54
11.040	26.72	35.71	-0.02	7.51
11.072	26.72	35.71	-0.02	7.51
11.104	26.60	35.59	-0.02	7.51
11.136	26.60	35.59	-0.06	7.47
11.168	26.60	35.59	-0.06	7.47
11.200	26.64	35.63	-0.06	7.47
11.232	26.64	35.63	0.03	7.57
11.264	26.64	35.63	0.03	7.57
11.296	26.86	35.85	0.03	7.57
11.328	26.86	35.85	-0.07	7.47
11.360	26.86	35.85	-0.07	7.47
11.392	26.83	35.82	-0.07	7.47
11.424	26.83	35.82	0.01	7.54
11.456	26.83	35.82	0.01	7.54
11.488	26.86	35.85	0.01	7.54
11.520	26.86	35.85	-0.02	7.51
11.552	26.86	35.85	-0.02	7.51
11.584	26.81	35.80	-0.02	7.51
11.616	26.81	35.80	-0.06	7.47
11.648	26.81	35.80	-0.06	7.47
11.680	26.79	35.78	-0.06	7.47
11.712	26.79	35.78	0.03	7.56
11.744	26.79	35.78	0.03	7.56
11.776	26.80	35.79	0.03	7.56
11.808	26.80	35.79	-0.06	7.47
11.840	26.80	35.79	-0.06	7.47
11.872	27.01	36.00	-0.06	7.47
11.904	27.01	36.00	0.01	7.54
11.936	27.01	36.00	0.01	7.54
11.968	27.13	36.12	0.01	7.54
12.000	27.13	36.12	-0.02	7.51
12.032	27.13	36.12	-0.02	7.51
12.064	27.02	36.01	-0.02	7.51
12.096	27.02	36.01	-0.07	7.46
12.128	27.02	36.01	-0.07	7.46
12.160	26.95	35.94	-0.07	7.46
12.192	26.95	35.94	0.03	7.56
12.224	26.95	35.94	0.03	7.56
12.256	27.09	36.08	0.03	7.56
12.288	27.09	36.08	-0.06	7.47
12.320	27.09	36.08	-0.06	7.47
12.352	27.05	36.04	-0.06	7.47
12.384	27.05	36.04	0.01	7.54
12.416	27.05	36.04	0.01	7.54
12.448	26.95	35.94	0.01	7.54
12.480	26.95	35.94	-0.02	7.52
12.512	26.95	35.94	-0.02	7.52
12.544	27.00	35.99	-0.02	7.52
12.576	27.00	35.99	-0.06	7.47
12.608	27.00	35.99	-0.06	7.47
12.640	26.95	35.94	-0.06	7.47
12.672	26.95	35.94	0.03	7.57
12.704	26.95	35.94	0.03	7.57
12.736	27.01	36.00	0.03	7.57
12.768	27.01	36.00	-0.06	7.47
12.800	27.01	36.00	-0.06	7.47
12.832	27.10	36.09	-0.06	7.47
12.864	27.10	36.09	0.00	7.54
12.896	27.10	36.09	0.00	7.54
12.928	27.06	36.05	0.00	7.54
12.960	27.06	36.05	-0.01	7.52
12.992	27.06	36.05	-0.01	7.52
13.024	26.91	35.90	-0.01	7.52
13.056	26.91	35.90	-0.07	7.46
13.088	26.91	35.90	-0.07	7.46
13.120	26.88	35.87	-0.07	7.46
13.152	26.88	35.87	0.03	7.57
13.184	26.88	35.87	0.03	7.57
13.216	26.95	35.94	0.03	7.57
13.248	26.95	35.94	-0.06	7.47
13.280	26.95	35.94	-0.06	7.47
13.312	26.96	35.95	-0.06	7.47
13.344	26.96	35.95	0.00	7.54
13.376	26.96	35.95	0.00	7.54
13.408	26.95	35.94	0.00	7.54
13.440	26.95	35.94	-0.01	7.52
13.472	26.95	35.94	-0.01	7.52
13.504	26.95	35.94	-0.01	7.52
13.536	26.95	35.94	-0.07	7.46
13.568	26.95	35.94	-0.07	7.46
13.600	26.89	35.88	-0.07	7.46
13.632	26.89	35.88	0.03	7.56
13.664	26.89	35.88	0.03	7.56
13.696	26.94	35.93	0.03	7.56
13.728	26.94	35.93	-0.06	7.47
13.760	26.94	35.93	-0.06	7.47
13.792	27.01	36.00	-0.06	7.47
13.824	27.01	36.00	0.00	7.53
13.856	27.01	36.00	0.00	7.53
13.888	26.95	35.94	0.00	7.53
13.920	26.95	35.94	-0.01	7.53
13.952	26.95	35.94	-0.01	7.53
13.984	26.88	35.87	-0.01	7.53
14.016	26.88	35.87	-0.07	7.46
14.048	26.88	35.87	-0.07	7.46
14.080	26.89	35.88	-0.07	7.46
14.112	26.89	35.88	0.03	7.56
14.144	26.89	35.88	0.03	7.56
14.176	26.86	35.85	0.03	7.56
14.208	26.86	35.85	-0.06	7.47
14.240	26.86	35.85	-0.06	7.47
14.272	26.88	35.87	-0.06	7.47
14.304	26.88	35.87	-0.00	7.53
14.336	26.88	35.87	-0.00	7.53
14.368	26.95	35.94	-0.00	7.53
14.400	26.95	35.94	-0.00	7.53
14.432	26.95	35.94	-0.00	7.53
14.464	26.94	35.93	-0.00	7.53
14.496	26.94	35.93	-0.07	7.46
14.528	26.94	35.93	-0.07	7.46
14.560	26.97	35.96	-0.07	7.46
14.592	26.97	35.96	0.03	7.56
14.624	26.97	35.96	0.03	7.56
14.656	26.96	35.95	0.03	7.56
14.688	26.96	35.95	-0.06	7.47
14.720	26.96	35.95	-0.06	7.47
14.752	27.05	36.04	-0.06	7.47
14.784	27.05	36.04	-0.00	7.53
14.816	27.05	36.04	-0.00	7.53
14.848	27.00	35.99	-0.00	7.53
14.880	27.00	35.99	-0.00	7.53
14.912	27.00	35.99	-0.00	7.53
14.944	26.93	35.92	-0.00	7.53
14.976	26.93	35.92	-0.08	7.45
15.008	26.93	35.92	-0.08	7.45
15.040	26.94	35.93	-0.08	7.45
15.072	26.94	35.93	0.03	7.56
15.104	26.94	35.93	0.03	7.56
15.136	26.87	35.86	0.03	7.56
15.168	26.87	35.86	-0.06	7.47
15.200	26.87	35.86	-0.06	7.47
15.232	26.83	35.82	-0.06	7.47
15.264	26.83	35.82	-0.01	7.53
15.296	26.83	35.82	-0.01	7.53
15.328	26.86	35.85	-0.01	7.53
15.360	26.86	35.85	0.00	7.53
15.392	26.86	35.85	0.00	7.53
15.424	26.80	35.79	0.00	7.53
15.456	26.80	35.79	-0.07	7.46
15.488	26.80	35.79	-0.07	7.46
15.520	26.81	35.80	-0.07	7.46
15.552	26.81	35.80	0.03	7.56
15.584	26.81	35.80	0.03	7.56
15.616	26.82	35.81	0.03	7.56
15.648	26.82	35.81	-0.06	7.47
15.680	26.82	35.81	-0.06	7.47
15.712	26.91	35.90	-0.06	7.47
15.744	26.91	35.90	-0.01	7.52
15.776	26.91	35.90	-0.01	7.52
15.808	26.86	35.85	-0.01	7.52
15.840	26.86	35.85	0.01	7.54
15.872	26.86	35.85	0.01	7.54
15.904	26.85	35.84	0.01	7.54
15.936	26.85	35.84	-0.08	7.45
15.968	26.85	35.84	-0.08	7.45
16.000	26.86	35.85	-0.08	7.45
16.032	26.86	35.85	0.03	7.56
16.064	26.86	35.85	0.03	7.56
16.096	26.78	35.77	0.03	7.56
16.128	26.78	35.77	-0.06	7.47
16.160	26.78	35.77	-0.06	7.47
16.192	26.80	35.79	-0.06	7.47
16.224	26.80	35.79	-0.01	7.52
16.256	26.80	35.79	-0.01	7.52
16.288	26.82	35.82	-0.01	7.52
16.320	26.82	35.82	0.01	7.54
16.352	26.82	35.82	0.01	7.54
16.384	26.83	35.82	0.01	7.54
16.416	26.83	35.82	-0.08	7.45
16.448	26.83	35.82	-0.08	7.45
16.480	26.89	35.88	-0.08	7.45
16.512	26.89	35.88	0.02	7.55
16.544	26.89	35.88	0.02	7.55
16.576	26.91	35.90	0.02	7.55
16.608	26.91	35.90	-0.06	7.47
16.640	26.91	35.90	-0.06	7.47
16.672	26.98	35.97	-0.06	7.47
16.704	26.98	35.97	-0.01	7.52
16.736	26.98	35.97	-0.01	7.52
16.768	26.88	35.87	-0.01	7.52
16.800	26.88	35.87	0.01	7.54
16.832	26.88	35.87	0.01	7.54
16.864	26.80	35.79	0.01	7.54
16.896	26.80	35.79	-0.08	7.45
16.928	26.80	35.79	-0.08	7.45
16.960	26.86	35.85	-0.08	7.45
16.992	26.86	35.85	0.02	7.55
17.024	26.86	35.85	0.02	7.55
17.056	26.76	35.75	0.02	7.55
17.088	26.76	35.75	-0.06	7.47
17.120	26.76	35.75	-0.06	7.47
17.152	26.85	35.84	-0.06	7.47
17.184	26.85	35.84	-0.02	7.52
17.216	26.85	35.84	-0.02	7.52
17.248	26.87	35.86	-0.02	7.52
17.280	26.87	35.86	0.01	7.54
17.312	26.87	35.86	0.01	7.54
17.344	26.82	35.81	0.01	7.54
17.376	26.82	35.81	-0.08	7.45
17.408	26.82	35.81	-0.08	7.45
17.440	26.81	35.80	-0.08	7.45
17.472	26.81	35.80	0.02	7.55
17.504	26.81	35.80	0.02	7.55
17.536	26.83	35.82	0.02	7.55
17.568	26.83	35.82	-0.06	7.47
17.600	26.83	35.82	-0.06	7.47
17.632	26.92	35.91	-0.06	7.47
17.664	26.92	35.91	-0.01	7.52
17.696	26.92	35.91	-0.01	7.52
17.728	26.87	35.86	-0.01	7.52
17.760	26.87	35.86	0.01	7.55
17.792	26.87	35.86	0.01	7.55
17.824	26.87	35.86	0.01	7.55
17.856	26.87	35.86	-0.08	7.45
17.888	26.87	35.86	-0.08	7.45
17.920	26.87	35.86	-0.08	7.45
17.952	26.87	35.86	0.02	7.55
17.984	26.87	35.86	0.02	7.55
18.016	26.84	35.83	0.02	7.55
18.048	26.84	35.83	-0.06	7.47
18.080	26.84	35.83	-0.06	7.47
18.112	26.89	35.88	-0.06	7.47
18.144	26.89	35.88	-0.02	7.51
18.176	26.89	35.88	-0.02	7.51
18.208	26.86	35.85	-0.02	7.51
18.240	26.86	35.85	0.01	7.55
18.272	26.86	35.85	0.01	7.55
18.304	26.86	35.85	0.01	7.55
18.336	26.86	35.85	-0.08	7.45
18.368	26.86	35.85	-0.08	7.45
18.400	26.93	35.92	-0.08	7.45
18.432	26.93	35.92	0.02	7.55
18.464	26.93	35.92	0.02	7.55
18.496	26.98	35.97	0.02	7.55
18.528	26.98	35.97	-0.06	7.47
18.560	26.98	35.97	-0.06	7.47
18.592	26.97	35.96	-0.06	7.47
18.624	26.97	35.96	-0.02	7.51
18.656	26.97	35.96	-0.02	7.51
18.688	26.88	35.87	-0.02	7.51
18.720	26.88	35.87	0.01	7.54
18.752	26.88	35.87	0.01	7.54
18.784	26.86	35.85	0.01	7.54
18.816	26.86	35.85	-0.08	7.45
18.848	26.86	35.85	-0.08	7.45
18.880	26.90	35.89	-0.08	7.45
18.912	26.90	35.89	0.02	7.55
18.944	26.90	35.89	0.02	7.55
18.976	26.83	35.82	0.02	7.55
19.008	26.83	35.82	-0.06	7.47
19.040	26.83	35.82	-0.06	7.47
19.072	26.86	35.85	-0.06	7.47
19.104	26.86	35.85	-0.02	7.51
19.136	26.86	35.85	-0.02	7.51
19.168	26.83	35.82	-0.02	7.51
19.200	26.83	35.82	0.01	7.54
19.232	26.83	35.82	0.01	7.54
19.264	26.80	35.79	0.01	7.54
19.296	26.80	35.79	-0.09	7.45
19.328	26.80	35.79	-0.09	7.45
19.360	26.86	35.85	-0.09	7.45
19.392	26.86	35.85	0.02	7.55
19.424	26.86	35.85	0.02	7.55
19.456	26.92	35.91	0.02	7.55
19.488	26.92	35.91	-0.06	7.47
19.520	26.92	35.91	-0.06	7.47
19.552	26.85	35.84	-0.06	7.47
19.584	26.85	35.84	-0.02	7.51
19.616	26.85	35.84	-0.02	7.51
19.648	26.70	35.69	-0.02	7.51
19.680	26.70	35.69	0.01	7.54
19.712	26.70	35.69	0.01	7.54
19.744	26.70	35.69	0.01	7.54
19.776	26.70	35.69	-0.08	7.45
19.808	26.70	35.69	-0.08	7.45
19.840	26.85	35.84	-0.08	7.45
19.872	26.85	35.84	0.02	7.55
19.904	26.85	35.84	0.02	7.55
19.936	26.81	35.80	0.02	7.55
19.968	26.81	35.80	-0.06	7.47
20.000	26.81	35.80	-0.06	7.47
20.032	26.78	35.77	-0.06	7.47
20.064	26.78	35.77	-0.02	7.51
20.096	26.78	35.77	-0.02	7.51
20.128	26.75	35.74	-0.02	7.51
20.160	26.75	35.74	0.02	7.55
20.192	26.75	35.74	0.02	7.55
20.224	26.80	35.79	0.02	7.55
20.256	26.80	35.79	-0.08	7.45
20.288	26.80	35.79	-0.08	7.45
20.320	26.82	35.81	-0.08	7.45
20.352	26.82	35.81	0.02	7.55
20.384	26.82	35.81	0.02	7.55
20.416	26.89	35.88	0.02	7.55
20.448	26.89	35.88	-0.06	7.47
20.480	26.89	35.88	-0.06	7.47
20.512	26.91	35.90	-0.06	7.47
20.544	26.91	35.90	-0.03	7.50
20.576	26.91	35.90	-0.03	7.50
20.608	26.85	35.84	-0.03	7.50
20.640	26.85	35.84	0.02	7.55
20.672	26.85	35.84	0.02	7.55
20.704	26.90	35.89	0.02	7.55
20.736	26.90	35.89	-0.08	7.45
20.768	26.90	35.89	-0.08	7.45
20.800	26.87	35.86	-0.08	7.45
20.832	26.87	35.86	0.02	7.55
20.864	26.87	35.86	0.02	7.55
20.896	26.87	35.86	0.02	7.55
20.928	26.87	35.86	-0.06	7.48
20.960	26.87	35.86	-0.06	7.48
20.992	26.94	35.93	-0.06	7.48
21.024	26.94	35.93	-0.03	7.50
21.056	26.94	35.93	-0.03	7.50
21.088	26.89	35.88	-0.03	7.50
21.120	26.89	35.88	0.02	7.55
21.152	26.89	35.88	0.02	7.55
21.184	26.89	35.88	0.02	7.55
21.216	26.89	35.88	-0.08	7.45
21.248	26.89	35.88	-0.08	7.45
21.280	26.87	35.86	-0.08	7.45
21.312	26.87	35.86	0.01	7.55
21.344	26.87	35.86	0.01	7.55
21.376	26.96	35.95	0.01	7.55
21.408	26.96	35.95	-0.06	7.47
21.440	26.96	35.95	-0.06	7.47
21.472	26.93	35.92	-0.06	7.47
21.504	26.93	35.92	-0.03	7.50
21.536	26.93	35.92	-0.03	7.50
21.568	26.88	35.87	-0.03	7.50
21.600	26.88	35.87	0.02	7.55
21.632	26.88	35.87	0.02	7.55
21.664	26.90	35.89	0.02	7.55
21.696	26.90	35.89	-0.08	7.45
21.728	26.90	35.89	-0.08	7.45
21.760	26.85	35.84	-0.08	7.45
21.792	26.85	35.84	0.02	7.55
21.824	26.85	35.84	0.02	7.55
21.856	26.89	35.88	0.02	7.55
21.888	26.89	35.88	-0.06	7.47
21.920	26.89	35.88	-0.06	7.47
21.952	26.96	35.95	-0.06	7.47
21.984	26.96	35.95	-0.03	7.50
22.016	26.96	35.95	-0.03	7.50
22.048	26.90	35.89	-0.03	7.50
22.080	26.90	35.89	0.02	7.55
22.112	26.90	35.89	0.02	7.55
22.144	26.93	35.92	0.02	7.55
22.176	26.93	35.92	-0.08	7.45
22.208	26.93	35.92	-0.08	7.45
22.240	26.87	35.86	-0.08	7.45
22.272	26.87	35.86	0.02	7.55
22.304	26.87	35.86	0.02	7.55
22.336	26.96	35.95	0.02	7.55
22.368	26.96	35.95	-0.06	7.47
22.400	26.96	35.95	-0.06	7.47
22.432	26.87	35.86	-0.06	7.47
22.464	26.87	35.86	-0.03	7.50
22.496	26.87	35.86	-0.03	7.50
22.528	26.84	35.83	-0.03	7.50
22.560	26.84	35.83	0.02	7.55
22.592	26.84	35.83	0.02	7.55
22.624	26.88	35.87	0.02	7.55
22.656	26.88	35.87	-0.08	7.45
22.688	26.88	35.87	-0.08	7.45
22.720	26.88	35.87	-0.08	7.45
22.752	26.88	35.87	0.02	7.55
22.784	26.88	35.87	0.02	7.55
22.816	26.97	35.96	0.02	7.55
22.848	26.97	35.96	-0.06	7.47
22.880	26.97	35.96	-0.06	7.47
22.912	26.96	35.95	-0.06	7.47
22.944	26.96	35.95	-0.03	7.50
22.976	26.96	35.95	-0.03	7.50
23.008	26.89	35.88	-0.03	7.50
23.040	26.89	35.88	0.02	7.55
23.072	26.89	35.88	0.02	7.55
23.104	26.96	35.95	0.02	7.55
23.136	26.96	35.95	-0.08	7.45
23.168	26.96	35.95	-0.08	7.45
23.200	27.03	36.02	-0.08	7.45
23.232	27.03	36.02	0.02	7.55
23.264	27.03	36.02	0.02	7.55
23.296	27.13	36.12	0.02	7.55
23.328	27.13	36.12	-0.05	7.48
23.360	27.13	36.12	-0.05	7.48
23.392	27.01	36.00	-0.05	7.48
23.424	27.01	36.00	-0.03	7.50
23.456	27.01	36.00	-0.03	7.50
23.488	27.05	36.04	-0.03	7.50
23.520	27.05	36.04	0.02	7.55
23.552	27.05	36.04	0.02	7.55
23.584	27.03	36.02	0.02	7.55
23.616	27.03	36.02	-0.08	7.45
23.648	27.03	36.02	-0.08	7.45
23.680	26.96	35.95	-0.08	7.45
23.712	26.96	35.95	0.02	7.55
23.744	26.96	35.95	0.02	7.55
23.776	26.98	35.97	0.02	7.55
23.808	26.98	35.97	-0.05	7.48
23.840	26.98	35.97	-0.05	7.48
23.872	26.97	35.96	-0.05	7.48
23.904	26.97	35.96	-0.03	7.50
23.936	26.97	35.96	-0.03	7.50
23.968	26.97	35.96	-0.03	7.50
24.000	26.97	35.96	0.02	7.55
24.032	26.97	35.96	0.02	7.55
24.064	26.95	35.94	0.02	7.55
24.096	26.95	35.94	-0.08	7.45
24.128	26.95	35.94	-0.08	7.45
24.160	27.04	36.03	-0.08	7.45
24.192	27.04	36.03	0.02	7.55
24.224	27.04	36.03	0.02	7.55
24.256	27.07	36.06	0.02	7.55
24.288	27.07	36.06	-0.06	7.48
24.320	27.07	36.06	-0.06	7.48
24.352	27.01	36.00	-0.06	7.48
24.384	27.01	36.00	-0.03	7.50
24.416	27.01	36.00	-0.03	7.50
24.448	27.03	36.02	-0.03	7.50
24.480	27.03	36.02	0.02	7.55
24.512	27.03	36.02	0.02	7.55
24.544	27.10	36.09	0.02	7.55
24.576	27.10	36.09	-0.08	7.45
24.608	27.10	36.09	-0.08	7.45
24.640	27.08	36.07	-0.08	7.45
24.672	27.08	36.07	0.02	7.55
24.704	27.08	36.07	0.02	7.55
24.736	27.05	36.04	0.02	7.55
24.768	27.05	36.04	-0.06	7.47
24.800	27.05	36.04	-0.06	7.47
24.832	27.01	36.00	-0.06	7.47
24.864	27.01	36.00	-0.03	7.50
24.896	27.01	36.00	-0.03	7.50
24.928	27.03	36.02	-0.03	7.50
24.960	27.03	36.02	0.02	7.55
24.992	27.03	36.02	0.02	7.55
25.024	27.05	36.04	0.02	7.55
25.056	27.05	36.04	-0.08	7.45
25.088	27.05	36.04	-0.08	7.45
25.120	27.09	36.08	-0.08	7.45
25.152	27.09	36.08	0.01	7.55
25.184	27.09	36.08	0.01	7.55
25.216	27.09	36.08	0.01	7.55
25.248	27.09	36.08	-0.05	7.48
25.280	27.09	36.08	-0.05	7.48
25.312	26.98	35.97	-0.05	7.48
25.344	26.98	35.97	-0.03	7.50
25.376	26.98	35.97	-0.03	7.50
25.408	26.99	35.98	-0.03	7.50
25.440	26.99	35.98	0.02	7.55
25.472	26.99	35.98	0.02	7.55
25.504	26.98	35.97	0.02	7.55
25.536	26.98	35.97	-0.08	7.45
25.568	26.98	35.97	-0.08	7.45
25.600	26.94	35.93	-0.08	7.45
25.632	26.94	35.93	0.02	7.55
25.664	26.94	35.93	0.02	7.55
25.696	27.00	35.99	0.02	7.55
25.728	27.00	35.99	-0.06	7.48
25.760	27.00	35.99	-0.06	7.48
25.792	26.98	35.97	-0.06	7.48
25.824	26.98	35.97	-0.03	7.50
25.856	26.98	35.97	-0.03	7.50
25.888	26.96	35.95	-0.03	7.50
25.920	26.96	35.95	0.02	7.55
25.952	26.96	35.95	0.02	7.55
25.984	26.90	35.89	0.02	7.55
26.016	26.90	35.89	-0.08	7.45
26.048	26.90	35.89	-0.08	7.45
26.080	26.95	35.94	-0.08	7.45
26.112	26.95	35.94	0.02	7.55
26.144	26.95	35.94	0.02	7.55
26.176	26.95	35.94	0.02	7.55
26.208	26.95	35.94	-0.06	7.48
26.240	26.95	35.94	-0.06	7.48
26.272	26.95	35.94	-0.06	7.48
26.304	26.95	35.94	-0.03	7.50
26.336	26.95	35.94	-0.03	7.50
26.368	27.02	36.01	-0.03	7.50
26.400	27.02	36.01	0.02	7.55
26.432	27.02	36.01	0.02	7.55
26.464	27.08	36.07	0.02	7.55
26.496	27.08	36.07	-0.08	7.45
26.528	27.08	36.07	-0.08	7.45
26.560	27.03	36.02	-0.08	7.45
26.592	27.03	36.02	0.02	7.55
26.624	27.03	36.02	0.02	7.55
26.656	27.02	36.02	0.02	7.55
26.688	27.02	36.02	-0.06	7.48
26.720	27.02	36.02	-0.06	7.48
26.752	27.00	35.99	-0.06	7.48
26.784	27.00	35.99	-0.04	7.50
26.816	27.00	35.99	-0.04	7.50
26.848	27.01	36.00	-0.04	7.50
26.880	27.01	36.00	0.02	7.55
26.912	27.01	36.00	0.02	7.55
26.944	26.94	35.93	0.02	7.55
26.976	26.94	35.93	-0.08	7.45
27.008	26.94	35.93	-0.08	7.45
27.040	27.08	36.07	-0.08	7.45
27.072	27.08	36.07	0.01	7.55
27.104	27.08	36.07	0.01	7.55
27.136	27.02	36.01	0.01	7.55
27.168	27.02	36.01	-0.06	7.48
27.200	27.02	36.01	-0.06	7.48
27.232	27.01	36.00	-0.06	7.48
27.264	27.01	36.00	-0.03	7.50
27.296	27.01	36.00	-0.03	7.50
27.328	27.02	36.01	-0.03	7.50
27.360	27.02	36.01	0.02	7.55
27.392	27.02	36.01	0.02	7.55
27.424	26.97	35.96	0.02	7.55
27.456	26.97	35.96	-0.08	7.45
27.488	26.97	35.96	-0.08	7.45
27.520	27.02	36.01	-0.08	7.45
27.552	27.02	36.01	0.01	7.55
27.584	27.02	36.01	0.01	7.55
27.616	27.01	36.00	0.01	7.55
27.648	27.01	36.00	-0.05	7.48
27.680	27.01	36.00	-0.05	7.48
27.712	27.04	36.03	-0.05	7.48
27.744	27.04	36.03	-0.03	7.50
27.776	27.04	36.03	-0.03	7.50
27.808	27.02	36.01	-0.03	7.50
27.840	27.02	36.01	0.02	7.55
27.872	27.02	36.01	0.02	7.55
27.904	27.05	36.04	0.02	7.55
27.936	27.05	36.04	-0.08	7.45
27.968	27.05	36.04	-0.08	7.45
28.000	27.05	36.04	-0.08	7.45
28.032	27.05	36.04	0.02	7.55
28.064	27.05	36.04	0.02	7.55
28.096	26.99	35.98	0.02	7.55
28.128	26.99	35.98	-0.06	7.48
28.160	26.99	35.98	-0.06	7.48
28.192	27.04	36.03	-0.06	7.48
28.224	27.04	36.03	-0.03	7.50
28.256	27.04	36.03	-0.03	7.50
28.288	27.16	36.15	-0.03	7.50
28.320	27.16	36.15	0.02	7.55
28.352	27.16	36.15	0.02	7.55
28.384	27.07	36.06	0.02	7.55
28.416	27.07	36.06	-0.08	7.45
28.448	27.07	36.06	-0.08	7.45
28.480	27.08	36.07	-0.08	7.45
28.512	27.08	36.07	0.01	7.55
28.544	27.08	36.07	0.01	7.55
28.576	27.05	36.04	0.01	7.55
28.608	27.05	36.04	-0.05	7.48
28.640	27.05	36.04	-0.05	7.48
28.672	27.06	36.05	-0.05	7.48
28.704	27.06	36.05	-0.03	7.50
28.736	27.06	36.05	-0.03	7.50
28.768	27.10	36.09	-0.03	7.50
28.800	27.10	36.09	0.02	7.55
28.832	27.10	36.09	0.02	7.55
28.864	27.11	36.10	0.02	7.55
28.896	27.11	36.10	-0.08	7.45
28.928	27.11	36.10	-0.08	7.45
28.960	27.08	36.07	-0.08	7.45
28.992	27.08	36.07	0.01	7.55
29.024	27.08	36.07	0.01	7.55
29.056	27.01	36.00	0.01	7.55
29.088	27.01	36.00	-0.05	7.48
29.120	27.01	36.00	-0.05	7.48
29.152	27.06	36.05	-0.05	7.48
29.184	27.06	36.05	-0.03	7.50
29.216	27.06	36.05	-0.03	7.50
29.248	27.10	36.09	-0.03	7.50
29.280	27.10	36.09	0.02	7.55
29.312	27.10	36.09	0.02	7.55
29.344	27.06	36.05	0.02	7.55
29.376	27.06	36.05	-0.08	7.45
29.408	27.06	36.05	-0.08	7.45
29.440	27.05	36.04	-0.08	7.45
29.472	27.05	36.04	0.01	7.54
29.504	27.05	36.04	0.01	7.54
29.536	27.02	36.01	0.01	7.54
29.568	27.02	36.01	-0.05	7.48
29.600	27.02	36.01	-0.05	7.48
29.632	27.06	36.05	-0.05	7.48
29.664	27.06	36.05	-0.03	7.50
29.696	27.06	36.05	-0.03	7.50
29.728	27.16	36.15	-0.03	7.50
29.760	27.16	36.15	0.02	7.55
29.792	27.16	36.15	0.02	7.55
29.824	27.22	36.21	0.02	7.55
29.856	27.22	36.21	-0.08	7.45
29.888	27.22	36.21	-0.08	7.45
29.920	27.19	36.18	-0.08	7.45
29.952	27.19	36.18	0.01	7.55
29.984	27.19	36.18	0.01	7.55
30.016	27.11	36.10	0.01	7.55
30.048	27.11	36.10	-0.05	7.48
30.080	27.11	36.10	-0.05	7.48
30.112	27.13	36.12	-0.05	7.48
30.144	27.13	36.12	-0.04	7.49
30.176	27.13	36.12	-0.04	7.49
30.208	27.16	36.15	-0.04	7.49
30.240	27.16	36.15	0.03	7.56
30.272	27.16	36.15	0.03	7.56
30.304	27.13	36.12	0.03	7.56
30.336	27.13	36.12	-0.08	7.45
30.368	27.13	36.12	-0.08	7.45
30.400	27.19	36.18	-0.08	7.45
30.432	27.19	36.18	0.02	7.55
30.464	27.19	36.18	0.02	7.55
30.496	27.16	36.15	0.02	7.55
30.528	27.16	36.15	-0.05	7.48
30.560	27.16	36.15	-0.05	7.48
30.592	27.14	36.13	-0.05	7.48
30.624	27.14	36.13	-0.04	7.49
30.656	27.14	36.13	-0.04	7.49
30.688	27.11	36.10	-0.04	7.49
30.720	27.11	36.10	0.02	7.55
30.752	27.11	36.10	0.02	7.55
30.784	27.18	36.17	0.02	7.55
30.816	27.18	36.17	-0.08	7.45
30.848	27.18	36.17	-0.08	7.45
30.880	27.13	36.12	-0.08	7.45
30.912	27.13	36.12	0.01	7.55
30.944	27.13	36.12	0.01	7.55
30.976	27.08	36.07	0.01	7.55
31.008	27.08	36.07	-0.05	7.48
31.040	27.08	36.07	-0.05	7.48
31.072	27.13	36.12	-0.05	7.48
31.104	27.13	36.12	-0.04	7.49
31.136	27.13	36.12	-0.04	7.49
31.168	27.08	36.07	-0.04	7.49
31.200	27.08	36.07	0.02	7.55
31.232	27.08	36.07	0.02	7.55
31.264	27.06	36.05	0.02	7.55
31.296	27.06	36.05	-0.08	7.45
31.328	27.06	36.05	-0.08	7.45
31.360	27.00	35.99	-0.08	7.45
31.392	27.00	35.99	0.01	7.55
31.424	27.00	35.99	0.01	7.55
31.456	26.96	35.95	0.01	7.55
31.488	26.96	35.95	-0.05	7.48
31.520	26.96	35.95	-0.05	7.48
31.552	27.12	36.11	-0.05	7.48
31.584	27.12	36.11	-0.04	7.49
31.616	27.12	36.11	-0.04	7.49
31.648	27.13	36.12	-0.04	7.49
31.680	27.13	36.12	0.02	7.55
31.712	27.13	36.12	0.02	7.55
31.744	27.21	36.20	0.02	7.55
31.776	27.21	36.20	-0.08	7.45
31.808	27.21	36.20	-0.08	7.45
31.840	27.15	36.14	-0.08	7.45
31.872	27.15	36.14	0.01	7.54
31.904	27.15	36.14	0.01	7.54
31.936	27.06	36.05	0.01	7.54
31.968	27.06	36.05	-0.05	7.48
32.000	27.06	36.05	-0.05	7.48
32.032	27.14	36.13	-0.05	7.48
32.064	27.14	36.13	-0.04	7.49
32.096	27.14	36.13	-0.04	7.49
32.128	27.09	36.08	-0.04	7.49
32.160	27.09	36.08	0.02	7.55
32.192	27.09	36.08	0.02	7.55
32.224	27.14	36.13	0.02	7.55
32.256	27.14	36.13	-0.08	7.45
32.288	27.14	36.13	-0.08	7.45
32.320	27.16	36.15	-0.08	7.45
32.352	27.16	36.15	0.01	7.54
32.384	27.16	36.15	0.01	7.54
32.416	27.11	36.10	0.01	7.54
32.448	27.11	36.10	-0.05	7.48
32.480	27.11	36.10	-0.05	7.48
32.512	27.07	36.06	-0.05	7.48
32.544	27.07	36.06	-0.04	7.49
32.576	27.07	36.06	-0.04	7.49
32.608	27.09	36.08	-0.04	7.49
32.640	27.09	36.08	0.03	7.56
32.672	27.09	36.08	0.03	7.56
32.704	27.20	36.19	0.03	7.56
32.736	27.20	36.19	-0.08	7.45
32.768	27.20	36.19	-0.08	7.45
32.800	27.10	36.09	-0.08	7.45
32.832	27.10	36.09	0.01	7.54
32.864	27.10	36.09	0.01	7.54
32.896	27.09	36.08	0.01	7.54
32.928	27.09	36.08	-0.05	7.48
32.960	27.09	36.08	-0.05	7.48
32.992	27.13	36.12	-0.05	7.48
33.024	27.13	36.12	-0.04	7.49
33.056	27.13	36.12	-0.04	7.49
33.088	27.08	36.07	-0.04	7.49
33.120	27.08	36.07	0.02	7.55
33.152	27.08	36.07	0.02	7.55
33.184	27.10	36.09	0.02	7.55
33.216	27.10	36.09	-0.08	7.45
33.248	27.10	36.09	-0.08	7.45
33.280	27.13	36.12	-0.08	7.45
33.312	27.13	36.12	0.01	7.55
33.344	27.13	36.12	0.01	7.55
33.376	27.07	36.06	0.01	7.55
33.408	27.07	36.06	-0.05	7.48
33.440	27.07	36.06	-0.05	7.48
33.472	27.05	36.04	-0.05	7.48
33.504	27.05	36.04	-0.05	7.49
33.536	27.05	36.04	-0.05	7.49
33.568	27.03	36.02	-0.05	7.49
33.600	27.03	36.02	0.03	7.56
33.632	27.03	36.02	0.03	7.56
33.664	27.01	36.00	0.03	7.56
33.696	27.01	36.00	-0.08	7.45
33.728	27.01	36.00	-0.08	7.45
33.760	26.94	35.93	-0.08	7.45
33.792	26.94	35.93	0.01	7.54
33.824	26.94	35.93	0.01	7.54
33.856	26.88	35.87	0.01	7.54
33.888	26.88	35.87	-0.05	7.48
33.920	26.88	35.87	-0.05	7.48
33.952	26.98	35.97	-0.05	7.48
33.984	26.98	35.97	-0.05	7.48
34.016	26.98	35.97	-0.05	7.48
34.048	27.00	35.99	-0.05	7.48
34.080	27.00	35.99	0.03	7.56
34.112	27.00	35.99	0.03	7.56
34.144	27.01	36.00	0.03	7.56
34.176	27.01	36.00	-0.08	7.45
34.208	27.01	36.00	-0.08	7.45
34.240	26.99	35.98	-0.08	7.45
34.272	26.99	35.98	0.01	7.55
34.304	26.99	35.98	0.01	7.55
34.336	26.95	35.94	0.01	7.55
34.368	26.95	35.94	-0.04	7.49
34.400	26.95	35.94	-0.04	7.49
34.432	26.97	35.96	-0.04	7.49
34.464	26.97	35.96	-0.05	7.48
34.496	26.97	35.96	-0.05	7.48
34.528	26.93	35.92	-0.05	7.48
34.560	26.93	35.92	0.03	7.56
34.592	26.93	35.92	0.03	7.56
34.624	26.94	35.93	0.03	7.56
34.656	26.94	35.93	-0.07	7.46
34.688	26.94	35.93	-0.07	7.46
34.720	26.86	35.85	-0.07	7.46
34.752	26.86	35.85	0.01	7.54
34.784	26.86	35.85	0.01	7.54
34.816	26.89	35.88	0.01	7.54
34.848	26.89	35.88	-0.04	7.49
34.880	26.89	35.88	-0.04	7.49
34.912	26.95	35.94	-0.04	7.49
34.944	26.95	35.94	-0.05	7.48
34.976	26.95	35.94	-0.05	7.48
35.008	26.90	35.89	-0.05	7.48
35.040	26.90	35.89	0.03	7.56
35.072	26.90	35.89	0.03	7.56
35.104	26.96	35.95	0.03	7.56
35.136	26.96	35.95	-0.07	7.46
35.168	26.96	35.95	-0.07	7.46
35.200	26.91	35.90	-0.07	7.46
35.232	26.91	35.90	0.01	7.55
35.264	26.91	35.90	0.01	7.55
35.296	26.81	35.80	0.01	7.55
35.328	26.81	35.80	-0.04	7.49
35.360	26.81	35.80	-0.04	7.49
35.392	26.94	35.93	-0.04	7.49
35.424	26.94	35.93	-0.05	7.48
35.456	26.94	35.93	-0.05	7.48
35.488	26.99	35.98	-0.05	7.48
35.520	26.99	35.98	0.03	7.56
35.552	26.99	35.98	0.03	7.56
35.584	27.04	36.03	0.03	7.56
35.616	27.04	36.03	-0.07	7.46
35.648	27.04	36.03	-0.07	7.46
35.680	26.92	35.91	-0.07	7.46
35.712	26.92	35.91	0.01	7.54
35.744	26.92	35.91	0.01	7.54
35.776	26.91	35.90	0.01	7.54
35.808	26.91	35.90	-0.04	7.49
35.840	26.91	35.90	-0.04	7.49
35.872	26.93	35.92	-0.04	7.49
35.904	26.93	35.92	-0.06	7.48
35.936	26.93	35.92	-0.06	7.48
35.968	26.86	35.85	-0.06	7.48
36.000	26.86	35.85	0.03	7.56
36.032	26.86	35.85	0.03	7.56
36.064	26.86	35.85	0.03	7.56
36.096	26.86	35.85	-0.07	7.46
36.128	26.86	35.85	-0.07	7.46
36.160	26.88	35.87	-0.07	7.46
36.192	26.88	35.87	0.01	7.55
36.224	26.88	35.87	0.01	7.55
36.256	26.89	35.88	0.01	7.55
36.288	26.89	35.88	-0.03	7.50
36.320	26.89	35.88	-0.03	7.50
36.352	26.86	35.85	-0.03	7.50
36.384	26.86	35.85	-0.06	7.48
36.416	26.86	35.85	-0.06	7.48
36.448	26.99	35.98	-0.06	7.48
36.480	26.99	35.98	0.03	7.56
36.512	26.99	35.98	0.03	7.56
36.544	26.96	35.95	0.03	7.56
36.576	26.96	35.95	-0.07	7.46
36.608	26.96	35.95	-0.07	7.46
36.640	26.95	35.94	-0.07	7.46
36.672	26.95	35.94	0.01	7.54
36.704	26.95	35.94	0.01	7.54
36.736	26.95	35.94	0.01	7.54
36.768	26.95	35.94	-0.03	7.50
36.800	26.95	35.94	-0.03	7.50
36.832	26.93	35.92	-0.03	7.50
36.864	26.93	35.92	-0.06	7.47
36.896	26.93	35.92	-0.06	7.47
36.928	26.96	35.95	-0.06	7.47
36.960	26.96	35.95	0.03	7.57
36.992	26.96	35.95	0.03	7.57
37.024	26.96	35.95	0.03	7.57
37.056	26.96	35.95	-0.07	7.46
37.088	26.96	35.95	-0.07	7.46
37.120	26.96	35.95	-0.07	7.46
37.152	26.96	35.95	0.01	7.54
37.184	26.96	35.95	0.01	7.54
37.216	27.00	35.99	0.01	7.54
37.248	27.00	35.99	-0.03	7.50
37.280	27.00	35.99	-0.03	7.50
37.312	26.98	35.97	-0.03	7.50
37.344	26.98	35.97	-0.06	7.47
37.376	26.98	35.97	-0.06	7.47
37.408	27.09	36.08	-0.06	7.47
37.440	27.09	36.08	0.03	7.57
37.472	27.09	36.08	0.03	7.57
37.504	27.01	36.00	0.03	7.57
37.536	27.01	36.00	-0.07	7.46
37.568	27.01	36.00	-0.07	7.46
37.600	26.89	35.88	-0.07	7.46
37.632	26.89	35.88	0.01	7.54
37.664	26.89	35.88	0.01	7.54
37.696	26.91	35.90	0.01	7.54
37.728	26.91	35.90	-0.03	7.50
37.760	26.91	35.90	-0.03	7.50
37.792	26.92	35.91	-0.03	7.50
37.824	26.92	35.91	-0.06	7.47
37.856	26.92	35.91	-0.06	7.47
37.888	27.00	35.99	-0.06	7.47
37.920	27.00	35.99	0.04	7.57
37.952	27.00	35.99	0.04	7.57
37.984	27.01	36.00	0.04	7.57
38.016	27.01	36.00	-0.07	7.46
38.048	27.01	36.00	-0.07	7.46
38.080	26.99	35.98	-0.07	7.46
38.112	26.99	35.98	0.01	7.55
38.144	26.99	35.98	0.01	7.55
38.176	26.96	35.95	0.01	7.55
38.208	26.96	35.95	-0.02	7.51
38.240	26.96	35.95	-0.02	7.51
38.272	27.01	36.00	-0.02	7.51
38.304	27.01	36.00	-0.06	7.47
38.336	27.01	36.00	-0.06	7.47
38.368	27.05	36.04	-0.06	7.47
38.400	27.05	36.04	0.04	7.57
38.432	27.05	36.04	0.04	7.57
38.464	26.95	35.94	0.04	7.57
38.496	26.95	35.94	-0.07	7.47
38.528	26.95	35.94	-0.07	7.47
38.560	26.95	35.94	-0.07	7.47
38.592	26.95	35.94	0.01	7.54
38.624	26.95	35.94	0.01	7.54
38.656	26.96	35.95	0.01	7.54
38.688	26.96	35.95	-0.02	7.51
38.720	26.96	35.95	-0.02	7.51
38.752	26.95	35.94	-0.02	7.51
38.784	26.95	35.94	-0.07	7.46
38.816	26.95	35.94	-0.07	7.46
38.848	26.96	35.95	-0.07	7.46
38.880	26.96	35.95	0.03	7.56
38.912	26.96	35.95	0.03	7.56
38.944	27.02	36.01	0.03	7.56
38.976	27.02	36.01	-0.06	7.47
39.008	27.02	36.01	-0.06	7.47
39.040	27.06	36.05	-0.06	7.47
39.072	27.06	36.05	0.01	7.54
39.104	27.06	36.05	0.01	7.54
39.136	27.10	36.09	0.01	7.54
39.168	27.10	36.09	-0.02	7.51
39.200	27.10	36.09	-0.02	7.51
39.232	27.04	36.03	-0.02	7.51
39.264	27.04	36.03	-0.07	7.47
39.296	27.04	36.03	-0.07	7.47
39.328	27.02	36.01	-0.07	7.47
39.360	27.02	36.01	0.03	7.57
39.392	27.02	36.01	0.03	7.57
39.424	26.94	35.93	0.03	7.57
39.456	26.94	35.93	-0.07	7.47
39.488	26.94	35.93	-0.07	7.47
39.520	27.00	35.99	-0.07	7.47
39.552	27.00	35.99	0.00	7.54
39.584	27.00	35.99	0.00	7.54
39.616	27.06	36.05	0.00	7.54
39.648	27.06	36.05	-0.02	7.51
39.680	27.06	36.05	-0.02	7.51
39.712	27.02	36.01	-0.02	7.51
39.744	27.02	36.01	-0.07	7.46
39.776	27.02	36.01	-0.07	7.46
39.808	27.02	36.01	-0.07	7.46
39.840	27.02	36.01	0.03	7.56
39.872	27.02	36.01	0.03	7.56
39.904	27.00	35.99	0.03	7.56
39.936	27.00	35.99	-0.06	7.47
39.968	27.00	35.99	-0.06	7.47
40.000	26.99	35.98	-0.06	7.47
40.032	26.99	35.98	0.00	7.54
40.064	26.99	35.98	0.00	7.54
40.096	26.98	35.97	0.00	7.54
40.128	26.98	35.97	-0.01	7.52
40.160	26.98	35.97	-0.01	7.52
40.192	27.05	36.04	-0.01	7.52
40.224	27.05	36.04	-0.07	7.46
40.256	27.05	36.04	-0.07	7.46
40.288	27.13	36.12	-0.07	7.46
40.320	27.13	36.12	0.03	7.57
40.352	27.13	36.12	0.03	7.57
40.384	27.03	36.02	0.03	7.57
40.416	27.03	36.02	-0.06	7.47
40.448	27.03	36.02	-0.06	7.47
40.480	27.02	36.01	-0.06	7.47
40.512	27.02	36.01	0.00	7.54
40.544	27.02	36.01	0.00	7.54
40.576	27.04	36.03	0.00	7.54
40.608	27.04	36.03	-0.01	7.52
40.640	27.04	36.03	-0.01	7.52
40.672	27.02	36.01	-0.01	7.52
40.704	27.02	36.01	-0.07	7.46
40.736	27.02	36.01	-0.07	7.46
40.768	27.03	36.02	-0.07	7.46
40.800	27.03	36.02	0.03	7.56
40.832	27.03	36.02	0.03	7.56
40.864	27.01	36.00	0.03	7.56
40.896	27.01	36.00	-0.06	7.47
40.928	27.01	36.00	-0.06	7.47
40.960	26.93	35.92	-0.06	7.47
40.992	26.93	35.92	0.00	7.53
41.024	26.93	35.92	0.00	7.53
41.056	26.95	35.94	0.00	7.53
41.088	26.95	35.94	-0.01	7.53
41.120	26.95	35.94	-0.01	7.53
41.152	27.04	36.03	-0.01	7.53
41.184	27.04	36.03	-0.07	7.46
41.216	27.04	36.03	-0.07	7.46
41.248	26.96	35.95	-0.07	7.46
41.280	26.96	35.95	0.03	7.56
41.312	26.96	35.95	0.03	7.56
41.344	26.89	35.88	0.03	7.56
41.376	26.89	35.88	-0.06	7.47
41.408	26.89	35.88	-0.06	7.47
41.440	26.88	35.87	-0.06	7.47
41.472	26.88	35.87	-0.00	7.53
41.504	26.88	35.87	-0.00	7.53
41.536	26.92	35.91	-0.00	7.53
41.568	26.92	35.91	-0.00	7.53
41.600	26.92	35.91	-0.00	7.53
41.632	26.96	35.95	-0.00	7.53
41.664	26.96	35.95	-0.07	7.46
41.696	26.96	35.95	-0.07	7.46
41.728	26.98	35.97	-0.07	7.46
41.760	26.98	35.97	0.03	7.56
41.792	26.98	35.97	0.03	7.56
41.824	26.98	35.97	0.03	7.56
41.856	26.98	35.97	-0.06	7.47
41.888	26.98	35.97	-0.06	7.47
41.920	26.92	35.91	-0.06	7.47
41.952	26.92	35.91	-0.00	7.53
41.984	26.92	35.91	-0.00	7.53
42.016	26.86	35.85	-0.00	7.53
42.048	26.86	35.85	-0.00	7.53
42.080	26.86	35.85	-0.00	7.53
42.112	27.01	36.00	-0.00	7.53
42.144	27.01	36.00	-0.08	7.45
42.176	27.01	36.00	-0.08	7.45
42.208	26.99	35.98	-0.08	7.45
42.240	26.99	35.98	0.03	7.56
42.272	26.99	35.98	0.03	7.56
42.304	26.91	35.90	0.03	7.56
42.336	26.91	35.90	-0.06	7.47
42.368	26.91	35.90	-0.06	7.47
42.400	26.93	35.92	-0.06	7.47
42.432	26.93	35.92	-0.01	7.53
42.464	26.93	35.92	-0.01	7.53
42.496	26.90	35.89	-0.01	7.53
42.528	26.90	35.89	0.00	7.53
42.560	26.90	35.89	0.00	7.53
42.592	26.97	35.96	0.00	7.53
42.624	26.97	35.96	-0.07	7.46
42.656	26.97	35.96	-0.07	7.46
42.688	27.01	36.00	-0.07	7.46
42.720	27.01	36.00	0.03	7.56
42.752	27.01	36.00	0.03	7.56
42.784	26.93	35.92	0.03	7.56
42.816	26.93	35.92	-0.07	7.47
42.848	26.93	35.92	-0.07	7.47
42.880	26.94	35.93	-0.07	7.47
42.912	26.94	35.93	-0.01	7.52
42.944	26.94	35.93	-0.01	7.52
42.976	26.87	35.86	-0.01	7.52
43.008	26.87	35.86	0.01	7.54
43.040	26.87	35.86	0.01	7.54
43.072	26.97	35.96	0.01	7.54
43.104	26.97	35.96	-0.08	7.45
43.136	26.97	35.96	-0.08	7.45
43.168	26.88	35.87	-0.08	7.45
43.200	26.88	35.87	0.03	7.56
43.232	26.88	35.87	0.03	7.56
43.264	26.87	35.86	0.03	7.56
43.296	26.87	35.86	-0.06	7.47
43.328	26.87	35.86	-0.06	7.47
43.360	26.91	35.90	-0.06	7.47
43.392	26.91	35.90	-0.01	7.52
43.424	26.91	35.90	-0.01	7.52
43.456	26.97	35.96	-0.01	7.52
43.488	26.97	35.96	0.01	7.54
43.520	26.97	35.96	0.01	7.54
43.552	26.96	35.95	0.01	7.54
43.584	26.96	35.95	-0.08	7.45
43.616	26.96	35.95	-0.08	7.45
43.648	26.88	35.87	-0.08	7.45
43.680	26.88	35.87	0.02	7.55
43.712	26.88	35.87	0.02	7.55
43.744	26.85	35.84	0.02	7.55
43.776	26.85	35.84	-0.06	7.47
43.808	26.85	35.84	-0.06	7.47
43.840	26.92	35.91	-0.06	7.47
43.872	26.92	35.91	-0.01	7.52
43.904	26.92	35.91	-0.01	7.52
43.936	26.98	35.97	-0.01	7.52
43.968	26.98	35.97	0.01	7.54
44.000	26.98	35.97	0.01	7.54
44.032	27.01	36.00	0.01	7.54
44.064	27.01	36.00	-0.08	7.45
44.096	27.01	36.00	-0.08	7.45
44.128	26.90	35.89	-0.08	7.45
44.160	26.90	35.89	0.03	7.56
44.192	26.90	35.89	0.03	7.56
44.224	26.92	35.91	0.03	7.56
44.256	26.92	35.91	-0.06	7.47
44.288	26.92	35.91	-0.06	7.47
44.320	27.01	36.00	-0.06	7.47
44.352	27.01	36.00	-0.02	7.51
44.384	27.01	36.00	-0.02	7.51
44.416	27.03	36.02	-0.02	7.51
44.448	27.03	36.02	0.01	7.54
44.480	27.03	36.02	0.01	7.54
44.512	27.07	36.06	0.01	7.54
44.544	27.07	36.06	-0.08	7.45
44.576	27.07	36.06	-0.08	7.45
44.608	27.00	35.99	-0.08	7.45
44.640	27.00	35.99	0.03	7.56
44.672	27.00	35.99	0.03	7.56
44.704	26.91	35.90	0.03	7.56
44.736	26.91	35.90	-0.06	7.47
44.768	26.91	35.90	-0.06	7.47
44.800	26.98	35.97	-0.06	7.47
44.832	26.98	35.97	-0.02	7.51
44.864	26.98	35.97	-0.02	7.51
44.896	27.01	36.00	-0.02	7.51
44.928	27.01	36.00	0.01	7.54
44.960	27.01	36.00	0.01	7.54
44.992	27.08	36.07	0.01	7.54
45.024	27.08	36.07	-0.08	7.45
45.056	27.08	36.07	-0.08	7.45
45.088	27.03	36.02	-0.08	7.45
45.120	27.03	36.02	0.02	7.55
45.152	27.03	36.02	0.02	7.55
45.184	27.00	35.99	0.02	7.55
45.216	27.00	35.99	-0.06	7.47
45.248	27.00	35.99	-0.06	7.47
45.280	27.08	36.07	-0.06	7.47
45.312	27.08	36.07	-0.02	7.51
45.344	27.08	36.07	-0.02	7.51
45.376	27.03	36.02	-0.02	7.51
45.408	27.03	36.02	0.02	7.55
45.440	27.03	36.02	0.02	7.55
45.472	27.02	36.01	0.02	7.55
45.504	27.02	36.01	-0.08	7.45
45.536	27.02	36.01	-0.08	7.45
45.568	26.98	35.97	-0.08	7.45
45.600	26.98	35.97	0.02	7.55
45.632	26.98	35.97	0.02	7.55
45.664	26.88	35.87	0.02	7.55
45.696	26.88	35.87	-0.06	7.47
45.728	26.88	35.87	-0.06	7.47
45.760	26.99	35.98	-0.06	7.47
45.792	26.99	35.98	-0.03	7.50
45.824	26.99	35.98	-0.03	7.50
45.856	27.04	36.03	-0.03	7.50
45.888	27.04	36.03	0.01	7.55
45.920	27.04	36.03	0.01	7.55
45.952	27.04	36.03	0.01	7.55
45.984	27.04	36.03	-0.08	7.45
46.016	27.04	36.03	-0.08	7.45
46.048	26.95	35.94	-0.08	7.45
46.080	26.95	35.94	0.01	7.55
46.112	26.95	35.94	0.01	7.55
46.144	26.97	35.96	0.01	7.55
46.176	26.97	35.96	-0.06	7.47
46.208	26.97	35.96	-0.06	7.47
46.240	27.00	35.99	-0.06	7.47
46.272	27.00	35.99	-0.03	7.50
46.304	27.00	35.99	-0.03	7.50
46.336	27.00	35.99	-0.03	7.50
46.368	27.00	35.99	0.02	7.55
46.400	27.00	35.99	0.02	7.55
46.432	27.03	36.02	0.02	7.55
46.464	27.03	36.02	-0.08	7.45
46.496	27.03	36.02	-0.08	7.45
46.528	27.01	36.00	-0.08	7.45
46.560	27.01	36.00	0.01	7.55
46.592	27.01	36.00	0.01	7.55
46.624	27.00	35.99	0.01	7.55
46.656	27.00	35.99	-0.06	7.48
46.688	27.00	35.99	-0.06	7.48
46.720	26.96	35.95	-0.06	7.48
46.752	26.96	35.95	-0.03	7.50
46.784	26.96	35.95	-0.03	7.50
46.816	27.05	36.04	-0.03	7.50
46.848	27.05	36.04	0.02	7.55
46.880	27.05	36.04	0.02	7.55
46.912	27.01	36.00	0.02	7.55
46.944	27.01	36.00	-0.08	7.45
46.976	27.01	36.00	-0.08	7.45
47.008	26.96	35.95	-0.08	7.45
47.040	26.96	35.95	0.01	7.55
47.072	26.96	35.95	0.01	7.55
47.104	26.90	35.89	0.01	7.55
47.136	26.90	35.89	-0.05	7.48
47.168	26.90	35.89	-0.05	7.48
47.200	26.95	35.94	-0.05	7.48
47.232	26.95	35.94	-0.04	7.49
47.264	26.95	35.94	-0.04	7.49
47.296	27.01	36.00	-0.04	7.49
47.328	27.01	36.00	0.02	7.55
47.360	27.01	36.00	0.02	7.55
47.392	27.03	36.02	0.02	7.55
47.424	27.03	36.02	-0.08	7.45
47.456	27.03	36.02	-0.08	7.45
47.488	27.01	36.00	-0.08	7.45
47.520	27.01	36.00	0.01	7.54
47.552	27.01	36.00	0.01	7.54
47.584	26.99	35.98	0.01	7.54
47.616	26.99	35.98	-0.05	7.48
47.648	26.99	35.98	-0.05	7.48
47.680	26.94	35.93	-0.05	7.48
47.712	26.94	35.93	-0.04	7.49
47.744	26.94	35.93	-0.04	7.49
47.776	27.02	36.01	-0.04	7.49
47.808	27.02	36.01	0.03	7.56
47.840	27.02	36.01	0.03	7.56
47.872	26.96	35.95	0.03	7.56
47.904	26.96	35.95	-0.08	7.45
47.936	26.96	35.95	-0.08	7.45
47.968	26.95	35.94	-0.08	7.45
48.000	26.95	35.94	0.02	7.55
48.032	26.95	35.94	0.02	7.55
48.064	26.97	35.96	0.02	7.55
48.096	26.97	35.96	-0.05	7.48
48.128	26.97	35.96	-0.05	7.48
48.160	26.98	35.97	-0.05	7.48
48.192	26.98	35.97	-0.04	7.49
48.224	26.98	35.97	-0.04	7.49
48.256	27.04	36.03	-0.04	7.49
48.288	27.04	36.03	0.03	7.56
48.320	27.04	36.03	0.03	7.56
48.352	27.09	36.08	0.03	7.56
48.384	27.09	36.08	-0.08	7.45
48.416	27.09	36.08	-0.08	7.45
48.448	27.11	36.10	-0.08	7.45
48.480	27.11	36.10	0.01	7.54
48.512	27.11	36.10	0.01	7.54
48.544	27.09	36.08	0.01	7.54
48.576	27.09	36.08	-0.05	7.48
48.608	27.09	36.08	-0.05	7.48
48.640	27.09	36.08	-0.05	7.48
48.672	27.09	36.08	-0.05	7.48
48.704	27.09	36.08	-0.05	7.48
48.736	27.22	36.21	-0.05	7.48
48.768	27.22	36.21	0.03	7.56
48.800	27.22	36.21	0.03	7.56
48.832	27.19	36.18	0.03	7.56
48.864	27.19	36.18	-0.08	7.45
48.896	27.19	36.18	-0.08	7.45
48.928	27.16	36.15	-0.08	7.45
48.960	27.16	36.15	0.01	7.54
48.992	27.16	36.15	0.01	7.54
49.024	27.20	36.19	0.01	7.54
49.056	27.20	36.19	-0.05	7.49
49.088	27.20	36.19	-0.05	7.49
49.120	27.17	36.16	-0.05	7.49
49.152	27.17	36.16	-0.05	7.48
49.184	27.17	36.16	-0.05	7.48
49.216	27.22	36.21	-0.05	7.48
49.248	27.22	36.21	0.03	7.56
49.280	27.22	36.21	0.03	7.56
49.312	27.17	36.16	0.03	7.56
49.344	27.17	36.16	-0.07	7.46
49.376	27.17	36.16	-0.07	7.46
49.408	27.11	36.10	-0.07	7.46
49.440	27.11	36.10	0.01	7.55
49.472	27.11	36.10	0.01	7.55
49.504	27.11	36.10	0.01	7.55
49.536	27.11	36.10	-0.04	7.50
49.568	27.11	36.10	-0.04	7.50
49.600	27.18	36.17	-0.04	7.50
49.632	27.18	36.17	-0.05	7.48
49.664	27.18	36.17	-0.05	7.48
49.696	27.15	36.14	-0.05	7.48
49.728	27.15	36.14	0.03	7.56
49.760	27.15	36.14	0.03	7.56
49.792	27.12	36.11	0.03	7.56
49.824	27.12	36.11	-0.07	7.46
49.856	27.12	36.11	-0.07	7.46
49.888	27.12	36.11	-0.07	7.46
49.920	27.12	36.11	0.01	7.55
49.952	27.12	36.11	0.01	7.55
49.984	27.13	36.12	0.01	7.55
50.016	27.13	36.12	-0.03	7.50
50.048	27.13	36.12	-0.03	7.50
50.080	27.06	36.05	-0.03	7.50
50.112	27.06	36.05	-0.05	7.48
50.144	27.06	36.05	-0.05	7.48
50.176	27.04	36.03	-0.05	7.48
50.208	27.04	36.03	0.03	7.56
50.240	27.04	36.03	0.03	7.56
50.272	27.03	36.02	0.03	7.56
50.304	27.03	36.02	-0.07	7.46
50.336	27.03	36.02	-0.07	7.46
50.368	26.98	35.97	-0.07	7.46
50.400	26.98	35.97	0.01	7.55
50.432	26.98	35.97	0.01	7.55
50.464	27.08	36.07	0.01	7.55
50.496	27.08	36.07	-0.03	7.50
50.528	27.08	36.07	-0.03	7.50
50.560	27.08	36.07	-0.03	7.50
50.592	27.08	36.07	-0.06	7.47
50.624	27.08	36.07	-0.06	7.47
50.656	27.11	36.10	-0.06	7.47
50.688	27.11	36.10	0.03	7.56
50.720	27.11	36.10	0.03	7.56
50.752	27.00	35.99	0.03	7.56
50.784	27.00	35.99	-0.07	7.46
50.816	27.00	35.99	-0.07	7.46
50.848	27.04	36.03	-0.07	7.46
50.880	27.04	36.03	0.01	7.55
50.912	27.04	36.03	0.01	7.55
50.944	27.05	36.04	0.01	7.55
50.976	27.05	36.04	-0.04	7.50
51.008	27.05	36.04	-0.04	7.50
51.040	27.06	36.05	-0.04	7.50
51.072	27.06	36.05	-0.06	7.47
51.104	27.06	36.05	-0.06	7.47
51.136	27.13	36.12	-0.06	7.47
51.168	27.13	36.12	0.03	7.56
51.200	27.13	36.12	0.03	7.56
51.232	27.06	36.05	0.03	7.56
51.264	27.06	36.05	-0.07	7.46
51.296	27.06	36.05	-0.07	7.46
51.328	27.03	36.02	-0.07	7.46
51.360	27.03	36.02	0.01	7.54
51.392	27.03	36.02	0.01	7.54
51.424	26.97	35.96	0.01	7.54
51.456	26.97	35.96	-0.03	7.50
51.488	26.97	35.96	-0.03	7.50
51.520	27.06	36.05	-0.03	7.50
51.552	27.06	36.05	-0.06	7.47
51.584	27.06	36.05	-0.06	7.47
51.616	26.99	35.98	-0.06	7.47
51.648	26.99	35.98	0.03	7.57
51.680	26.99	35.98	0.03	7.57
51.712	27.01	36.00	0.03	7.57
51.744	27.01	36.00	-0.07	7.46
51.776	27.01	36.00	-0.07	7.46
51.808	26.98	35.97	-0.07	7.46
51.840	26.98	35.97	0.01	7.54
51.872	26.98	35.97	0.01	7.54
51.904	26.98	35.97	0.01	7.54
51.936	26.98	35.97	-0.03	7.50
51.968	26.98	35.97	-0.03	7.50
52.000	27.05	36.04	-0.03	7.50
52.032	27.05	36.04	-0.06	7.47
52.064	27.05	36.04	-0.06	7.47
52.096	27.05	36.04	-0.06	7.47
52.128	27.05	36.04	0.03	7.57
52.160	27.05	36.04	0.03	7.57
52.192	27.08	36.07	0.03	7.57
52.224	27.08	36.07	-0.07	7.46
52.256	27.08	36.07	-0.07	7.46
52.288	26.92	35.92	-0.07	7.46
52.320	26.92	35.92	0.01	7.54
52.352	26.92	35.92	0.01	7.54
52.384	26.97	35.96	0.01	7.54
52.416	26.97	35.96	-0.03	7.50
52.448	26.97	35.96	-0.03	7.50
52.480	27.06	36.05	-0.03	7.50
52.512	27.06	36.05	-0.06	7.47
52.544	27.06	36.05	-0.06	7.47
52.576	27.01	36.00	-0.06	7.47
52.608	27.01	36.00	0.04	7.57
52.640	27.01	36.00	0.04	7.57
52.672	26.95	35.94	0.04	7.57
52.704	26.95	35.94	-0.07	7.46
52.736	26.95	35.94	-0.07	7.46
52.768	26.97	35.96	-0.07	7.46
52.800	26.97	35.96	0.01	7.54
52.832	26.97	35.96	0.01	7.54
52.864	26.99	35.98	0.01	7.54
52.896	26.99	35.98	-0.03	7.50
52.928	26.99	35.98	-0.03	7.50
52.960	27.04	36.03	-0.03	7.50
52.992	27.04	36.03	-0.06	7.47
53.024	27.04	36.03	-0.06	7.47
53.056	27.02	36.01	-0.06	7.47
53.088	27.02	36.01	0.03	7.57
53.120	27.02	36.01	0.03	7.57
53.152	26.97	35.96	0.03	7.57
53.184	26.97	35.96	-0.07	7.47
53.216	26.97	35.96	-0.07	7.47
53.248	26.96	35.95	-0.07	7.47
53.280	26.96	35.95	0.01	7.54
53.312	26.96	35.95	0.01	7.54
53.344	26.90	35.89	0.01	7.54
53.376	26.90	35.89	-0.02	7.51
53.408	26.90	35.89	-0.02	7.51
53.440	26.97	35.96	-0.02	7.51
53.472	26.97	35.96	-0.06	7.47
53.504	26.97	35.96	-0.06	7.47
53.536	26.91	35.90	-0.06	7.47
53.568	26.91	35.90	0.04	7.57
53.600	26.91	35.90	0.04	7.57
53.632	26.91	35.90	0.04	7.57
53.664	26.91	35.90	-0.07	7.46
53.696	26.91	35.90	-0.07	7.46
53.728	26.97	35.96	-0.07	7.46
53.760	26.97	35.96	0.01	7.54
53.792	26.97	35.96	0.01	7.54
53.824	26.95	35.94	0.01	7.54
53.856	26.95	35.94	-0.02	7.51
53.888	26.95	35.94	-0.02	7.51
53.920	26.96	35.95	-0.02	7.51
53.952	26.96	35.95	-0.06	7.47
53.984	26.96	35.95	-0.06	7.47
54.016	27.00	35.99	-0.06	7.47
54.048	27.00	35.99	0.03	7.57
54.080	27.00	35.99	0.03	7.57
54.112	26.91	35.90	0.03	7.57
54.144	26.91	35.90	-0.06	7.47
54.176	26.91	35.90	-0.06	7.47
54.208	26.88	35.87	-0.06	7.47
54.240	26.88	35.87	0.01	7.54
54.272	26.88	35.87	0.01	7.54
54.304	27.03	36.02	0.01	7.54
54.336	27.03	36.02	-0.02	7.51
54.368	27.03	36.02	-0.02	7.51
54.400	27.06	36.05	-0.02	7.51
54.432	27.06	36.05	-0.06	7.47
54.464	27.06	36.05	-0.06	7.47
54.496	27.04	36.03	-0.06	7.47
54.528	27.04	36.03	0.03	7.56
54.560	27.04	36.03	0.03	7.56
54.592	27.00	35.99	0.03	7.56
54.624	27.00	35.99	-0.06	7.47
54.656	27.00	35.99	-0.06	7.47
54.688	27.04	36.03	-0.06	7.47
54.720	27.04	36.03	0.01	7.54
54.752	27.04	36.03	0.01	7.54
54.784	26.97	35.96	0.01	7.54
54.816	26.97	35.96	-0.02	7.51
54.848	26.97	35.96	-0.02	7.51
54.880	27.02	36.01	-0.02	7.51
54.912	27.02	36.01	-0.07	7.47
54.944	27.02	36.01	-0.07	7.47
54.976	27.03	36.02	-0.07	7.47
55.008	27.03	36.02	0.03	7.56
55.040	27.03	36.02	0.03	7.56
55.072	27.01	36.00	0.03	7.56
55.104	27.01	36.00	-0.06	7.47
55.136	27.01	36.00	-0.06	7.47
55.168	27.04	36.03	-0.06	7.47
55.200	27.04	36.03	0.01	7.54
55.232	27.04	36.03	0.01	7.54
55.264	27.11	36.10	0.01	7.54
55.296	27.11	36.10	-0.02	7.51
55.328	27.11	36.10	-0.02	7.51
55.360	27.07	36.06	-0.02	7.51
55.392	27.07	36.06	-0.07	7.46
55.424	27.07	36.06	-0.07	7.46
55.456	26.96	35.95	-0.07	7.46
55.488	26.96	35.95	0.03	7.57
55.520	26.96	35.95	0.03	7.57
55.552	27.01	36.00	0.03	7.57
55.584	27.01	36.00	-0.06	7.47
55.616	27.01	36.00	-0.06	7.47
55.648	27.05	36.04	-0.06	7.47
55.680	27.05	36.04	0.01	7.54
55.712	27.05	36.04	0.01	7.54
55.744	27.07	36.06	0.01	7.54
55.776	27.07	36.06	-0.02	7.52
55.808	27.07	36.06	-0.02	7.52
55.840	27.04	36.03	-0.02	7.52
55.872	27.04	36.03	-0.06	7.47
55.904	27.04	36.03	-0.06	7.47
55.936	26.98	35.97	-0.06	7.47
55.968	26.98	35.97	0.03	7.56
56.000	26.98	35.97	0.03	7.56
56.032	26.98	35.97	0.03	7.56
56.064	26.98	35.97	-0.06	7.47
56.096	26.98	35.97	-0.06	7.47
56.128	27.01	36.00	-0.06	7.47
56.160	27.01	36.00	0.01	7.54
56.192	27.01	36.00	0.01	7.54
56.224	27.00	35.99	0.01	7.54
56.256	27.00	35.99	-0.02	7.51
56.288	27.00	35.99	-0.02	7.51
56.320	26.99	35.98	-0.02	7.51
56.352	26.99	35.98	-0.07	7.46
56.384	26.99	35.98	-0.07	7.46
56.416	26.94	35.93	-0.07	7.46
56.448	26.94	35.93	0.03	7.56
56.480	26.94	35.93	0.03	7.56
56.512	27.04	36.03	0.03	7.56
56.544	27.04	36.03	-0.06	7.47
56.576	27.04	36.03	-0.06	7.47
56.608	27.11	36.10	-0.06	7.47
56.640	27.11	36.10	0.00	7.54
56.672	27.11	36.10	0.00	7.54
56.704	27.08	36.07	0.00	7.54
56.736	27.08	36.07	-0.01	7.52
56.768	27.08	36.07	-0.01	7.52
56.800	27.05	36.04	-0.01	7.52
56.832	27.05	36.04	-0.07	7.46
56.864	27.05	36.04	-0.07	7.46
56.896	26.96	35.95	-0.07	7.46
56.928	26.96	35.95	0.03	7.56
56.960	26.96	35.95	0.03	7.56
56.992	26.97	35.96	0.03	7.56
57.024	26.97	35.96	-0.06	7.47
57.056	26.97	35.96	-0.06	7.47
57.088	27.00	35.99	-0.06	7.47
57.120	27.00	35.99	0.01	7.54
57.152	27.00	35.99	0.01	7.54
57.184	27.14	36.13	0.01	7.54
57.216	27.14	36.13	-0.02	7.52
57.248	27.14	36.13	-0.02	7.52
57.280	27.19	36.18	-0.02	7.52
57.312	27.19	36.18	-0.07	7.46
57.344	27.19	36.18	-0.07	7.46
57.376	27.13	36.12	-0.07	7.46
57.408	27.13	36.12	0.03	7.57
57.440	27.13	36.12	0.03	7.57
57.472	27.14	36.13	0.03	7.57
57.504	27.14	36.13	-0.06	7.47
57.536	27.14	36.13	-0.06	7.47
57.568	27.09	36.08	-0.06	7.47
57.600	27.09	36.08	0.01	7.54
57.632	27.09	36.08	0.01	7.54
57.664	27.14	36.13	0.01	7.54
57.696	27.14	36.13	-0.01	7.52
57.728	27.14	36.13	-0.01	7.52
57.760	27.10	36.09	-0.01	7.52
57.792	27.10	36.09	-0.07	7.47
57.824	27.10	36.09	-0.07	7.47
57.856	27.09	36.08	-0.07	7.47
57.888	27.09	36.08	0.03	7.56
57.920	27.09	36.08	0.03	7.56
57.952	27.11	36.10	0.03	7.56
57.984	27.11	36.10	-0.06	7.47
58.016	27.11	36.10	-0.06	7.47
58.048	27.07	36.06	-0.06	7.47
58.080	27.07	36.06	0.01	7.54
58.112	27.07	36.06	0.01	7.54
58.144	27.14	36.13	0.01	7.54
58.176	27.14	36.13	-0.02	7.52
58.208	27.14	36.13	-0.02	7.52
58.240	27.03	36.02	-0.02	7.52
58.272	27.03	36.02	-0.07	7.46
58.304	27.03	36.02	-0.07	7.46
58.336	27.01	36.00	-0.07	7.46
58.368	27.01	36.00	0.03	7.56
58.400	27.01	36.00	0.03	7.56
58.432	27.04	36.03	0.03	7.56
58.464	27.04	36.03	-0.07	7.47
58.496	27.04	36.03	-0.07	7.47
58.528	26.96	35.95	-0.07	7.47
58.560	26.96	35.95	0.00	7.54
58.592	26.96	35.95	0.00	7.54
58.624	27.03	36.02	0.00	7.54
58.656	27.03	36.02	-0.01	7.52
58.688	27.03	36.02	-0.01	7.52
58.720	27.10	36.09	-0.01	7.52
58.752	27.10	36.09	-0.07	7.47
58.784	27.10	36.09	-0.07	7.47
58.816	27.04	36.03	-0.07	7.47
58.848	27.04	36.03	0.03	7.56
58.880	27.04	36.03	0.03	7.56
58.912	27.06	36.05	0.03	7.56
58.944	27.06	36.05	-0.06	7.47
58.976	27.06	36.05	-0.06	7.47
59.008	27.03	36.02	-0.06	7.47
59.040	27.03	36.02	0.01	7.54
59.072	27.03	36.02	0.01	7.54
59.104	27.05	36.04	0.01	7.54
59.136	27.05	36.04	-0.01	7.52
59.168	27.05	36.04	-0.01	7.52
59.200	27.02	36.01	-0.01	7.52
59.232	27.02	36.01	-0.07	7.46
59.264	27.02	36.01	-0.07	7.46
59.296	26.96	35.95	-0.07	7.46
59.328	26.96	35.95	0.04	7.57
59.360	26.96	35.95	0.04	7.57
59.392	26.98	35.97	0.04	7.57
59.424	26.98	35.97	-0.06	7.47
59.456	26.98	35.97	-0.06	7.47
59.488	26.99	35.98	-0.06	7.47
59.520	26.99	35.98	0.01	7.54
59.552	26.99	35.98	0.01	7.54
59.584	27.02	36.01	0.01	7.54
59.616	27.02	36.01	-0.02	7.52
59.648	27.02	36.01	-0.02	7.52
59.680	27.00	35.99	-0.02	7.52
59.712	27.00	35.99	-0.07	7.46
59.744	27.00	35.99	-0.07	7.46
59.776	26.96	35.95	-0.07	7.46
59.808	26.96	35.95	0.03	7.56
59.840	26.96	35.95	0.03	7.56
59.872	27.09	36.08	0.03	7.56
59.904	27.09	36.08	-0.06	7.47
59.936	27.09	36.08	-0.06	7.47
59.968	27.15	36.14	-0.06	7.47
60.000	27.15	36.14	0.01	7.54
60.032	27.15	36.14	0.01	7.54
60.064	27.10	36.09	0.01	7.54
60.096	27.10	36.09	-0.01	7.52
60.128	27.10	36.09	-0.01	7.52
60.160	27.00	35.99	-0.01	7.52
60.192	27.00	35.99	-0.07	7.46
60.224	27.00	35.99	-0.07	7.46
60.256	27.01	36.00	-0.07	7.46
60.288	27.01	36.00	0.03	7.57
60.320	27.01	36.00	0.03	7.57
60.352	27.07	36.06	0.03	7.57
60.384	27.07	36.06	-0.06	7.47
60.416	27.07	36.06	-0.06	7.47
60.448	27.00	35.99	-0.06	7.47
60.480	27.00	35.99	0.01	7.54
60.512	27.00	35.99	0.01	7.54
60.544	27.05	36.04	0.01	7.54
60.576	27.05	36.04	-0.01	7.52
60.608	27.05	36.04	-0.01	7.52
60.640	27.07	36.06	-0.01	7.52
60.672	27.07	36.06	-0.07	7.47
60.704	27.07	36.06	-0.07	7.47
60.736	27.04	36.03	-0.07	7.47
60.768	27.04	36.03	0.03	7.56
60.800	27.04	36.03	0.03	7.56
60.832	27.05	36.04	0.03	7.56
60.864	27.05	36.04	-0.06	7.47
60.896	27.05	36.04	-0.06	7.47
60.928	27.02	36.01	-0.06	7.47
60.960	27.02	36.01	0.01	7.54
60.992	27.02	36.01	0.01	7.54
61.024	27.01	36.00	0.01	7.54
61.056	27.01	36.00	-0.01	7.52
61.088	27.01	36.00	-0.01	7.52
61.120	26.96	35.95	-0.01	7.52
61.152	26.96	35.95	-0.07	7.46
61.184	26.96	35.95	-0.07	7.46
61.216	26.99	35.98	-0.07	7.46
61.248	26.99	35.98	0.03	7.56
61.280	26.99	35.98	0.03	7.56
61.312	27.04	36.03	0.03	7.56
61.344	27.04	36.03	-0.06	7.47
61.376	27.04	36.03	-0.06	7.47
61.408	26.99	35.98	-0.06	7.47
61.440	26.99	35.98	0.00	7.54
61.472	26.99	35.98	0.00	7.54
61.504	27.05	36.04	0.00	7.54
61.536	27.05	36.04	-0.02	7.52
61.568	27.05	36.04	-0.02	7.52
61.600	27.03	36.02	-0.02	7.52
61.632	27.03	36.02	-0.07	7.47
61.664	27.03	36.02	-0.07	7.47
61.696	27.01	36.00	-0.07	7.47
61.728	27.01	36.00	0.03	7.57
61.760	27.01	36.00	0.03	7.57
61.792	27.10	36.09	0.03	7.57
61.824	27.10	36.09	-0.07	7.47
61.856	27.10	36.09	-0.07	7.47
61.888	27.16	36.15	-0.07	7.47
61.920	27.16	36.15	0.01	7.54
61.952	27.16	36.15	0.01	7.54
61.984	27.07	36.06	0.01	7.54
62.016	27.07	36.06	-0.02	7.52
62.048	27.07	36.06	-0.02	7.52
62.080	26.96	35.95	-0.02	7.52
62.112	26.96	35.95	-0.06	7.47
62.144	26.96	35.95	-0.06	7.47
62.176	26.96	35.95	-0.06	7.47
62.208	26.96	35.95	0.03	7.57
62.240	26.96	35.95	0.03	7.57
62.272	26.96	35.95	0.03	7.57
62.304	26.96	35.95	-0.06	7.47
62.336	26.96	35.95	-0.06	7.47
62.368	26.95	35.94	-0.06	7.47
62.400	26.95	35.94	0.01	7.54
62.432	26.95	35.94	0.01	7.54
62.464	26.97	35.96	0.01	7.54
62.496	26.97	35.96	-0.02	7.51
62.528	26.97	35.96	-0.02	7.51
62.560	26.97	35.96	-0.02	7.51
62.592	26.97	35.96	-0.06	7.47
62.624	26.97	35.96	-0.06	7.47
62.656	26.96	35.95	-0.06	7.47
62.688	26.96	35.95	0.04	7.57
62.720	26.96	35.95	0.04	7.57
62.752	26.91	35.90	0.04	7.57
62.784	26.91	35.90	-0.06	7.47
62.816	26.91	35.90	-0.06	7.47
62.848	27.05	36.04	-0.06	7.47
62.880	27.05	36.04	0.01	7.54
62.912	27.05	36.04	0.01	7.54
62.944	26.98	35.97	0.01	7.54
62.976	26.98	35.97	-0.01	7.52
63.008	26.98	35.97	-0.01	7.52
63.040	26.95	35.94	-0.01	7.52
63.072	26.95	35.94	-0.07	7.46
63.104	26.95	35.94	-0.07	7.46
63.136	26.97	35.96	-0.07	7.46
63.168	26.97	35.96	0.04	7.57
63.200	26.97	35.96	0.04	7.57
63.232	26.90	35.89	0.04	7.57
63.264	26.90	35.89	-0.06	7.47
63.296	26.90	35.89	-0.06	7.47
63.328	26.94	35.93	-0.06	7.47
63.360	26.94	35.93	0.01	7.54
63.392	26.94	35.93	0.01	7.54
63.424	26.94	35.93	0.01	7.54
63.456	26.94	35.93	-0.02	7.52
63.488	26.94	35.93	-0.02	7.52
63.520	26.98	35.97	-0.02	7.52
63.552	26.98	35.97	-0.06	7.47
63.584	26.98	35.97	-0.06	7.47
63.616	27.02	36.01	-0.06	7.47
63.648	27.02	36.01	0.03	7.57
63.680	27.02	36.01	0.03	7.57
63.712	26.98	35.97	0.03	7.57
63.744	26.98	35.97	-0.06	7.47
63.776	26.98	35.97	-0.06	7.47
63.808	27.00	35.99	-0.06	7.47
63.840	27.00	35.99	0.01	7.54
63.872	27.00	35.99	0.01	7.54
63.904	26.90	35.89	0.01	7.54
63.936	26.90	35.89	-0.02	7.52
63.968	26.90	35.89	-0.02	7.52
64.000	26.91	35.90	-0.02	7.52
64.032	26.91	35.90	-0.07	7.46
64.064	26.91	35.90	-0.07	7.46
64.096	26.94	35.93	-0.07	7.46
64.128	26.94	35.93	0.03	7.57
64.160	26.94	35.93	0.03	7.57
64.192	26.94	35.93	0.03	7.57
64.224	26.94	35.93	-0.06	7.47
64.256	26.94	35.93	-0.06	7.47
64.288	26.88	35.87	-0.06	7.47
64.320	26.88	35.87	0.01	7.54
64.352	26.88	35.87	0.01	7.54
64.384	26.92	35.91	0.01	7.54
64.416	26.92	35.91	-0.02	7.51
64.448	26.92	35.91	-0.02	7.51
64.480	26.90	35.89	-0.02	7.51
64.512	26.90	35.89	-0.06	7.47
64.544	26.90	35.89	-0.06	7.47
64.576	26.90	35.89	-0.06	7.47
64.608	26.90	35.89	0.03	7.57
64.640	26.90	35.89	0.03	7.57
64.672	26.91	35.90	0.03	7.57
64.704	26.91	35.90	-0.06	7.47
64.736	26.91	35.90	-0.06	7.47
64.768	26.98	35.97	-0.06	7.47
64.800	26.98	35.97	0.01	7.54
64.832	26.98	35.97	0.01	7.54
64.864	26.92	35.91	0.01	7.54
64.896	26.92	35.91	-0.02	7.52
64.928	26.92	35.91	-0.02	7.52
64.960	26.92	35.91	-0.02	7.52
64.992	26.92	35.91	-0.07	7.47
65.024	26.92	35.91	-0.07	7.47
65.056	26.96	35.95	-0.07	7.47
65.088	26.96	35.95	0.03	7.56
65.120	26.96	35.95	0.03	7.56
65.152	26.91	35.90	0.03	7.56
65.184	26.91	35.90	-0.06	7.47
65.216	26.91	35.90	-0.06	7.47
65.248	26.92	35.91	-0.06	7.47
65.280	26.92	35.91	0.01	7.54
65.312	26.92	35.91	0.01	7.54
65.344	26.91	35.90	0.01	7.54
65.376	26.91	35.90	-0.02	7.52
65.408	26.91	35.90	-0.02	7.52
65.440	26.92	35.91	-0.02	7.52
65.472	26.92	35.91	-0.07	7.46
65.504	26.92	35.91	-0.07	7.46
65.536	27.02	36.01	-0.07	7.46
65.568	27.02	36.01	0.03	7.57
65.600	27.02	36.01	0.03	7.57
65.632	27.09	36.08	0.03	7.57
65.664	27.09	36.08	-0.06	7.47
65.696	27.09	36.08	-0.06	7.47
65.728	27.03	36.02	-0.06	7.47
65.760	27.03	36.02	0.00	7.54
65.792	27.03	36.02	0.00	7.54
65.824	27.00	35.99	0.00	7.54
65.856	27.00	35.99	-0.02	7.51
65.888	27.00	35.99	-0.02	7.51
65.920	26.97	35.96	-0.02	7.51
65.952	26.97	35.96	-0.06	7.47
65.984	26.97	35.96	-0.06	7.47
66.016	27.06	36.05	-0.06	7.47
66.048	27.06	36.05	0.03	7.57
66.080	27.06	36.05	0.03	7.57
66.112	27.06	36.05	0.03	7.57
66.144	27.06	36.05	-0.07	7.47
66.176	27.06	36.05	-0.07	7.47
66.208	27.08	36.07	-0.07	7.47
66.240	27.08	36.07	0.01	7.54
66.272	27.08	36.07	0.01	7.54
66.304	26.99	35.98	0.01	7.54
66.336	26.99	35.98	-0.02	7.51
66.368	26.99	35.98	-0.02	7.51
66.400	26.91	35.90	-0.02	7.51
66.432	26.91	35.90	-0.07	7.47
66.464	26.91	35.90	-0.07	7.47
66.496	26.91	35.90	-0.07	7.47
66.528	26.91	35.90	0.03	7.56
66.560	26.91	35.90	0.03	7.56
66.592	26.96	35.95	0.03	7.56
66.624	26.96	35.95	-0.06	7.47
66.656	26.96	35.95	-0.06	7.47
66.688	26.92	35.91	-0.06	7.47
66.720	26.92	35.91	0.01	7.54
66.752	26.92	35.91	0.01	7.54
66.784	26.87	35.86	0.01	7.54
66.816	26.87	35.86	-0.02	7.52
66.848	26.87	35.86	-0.02	7.52
66.880	26.96	35.95	-0.02	7.52
66.912	26.96	35.95	-0.07	7.46
66.944	26.96	35.95	-0.07	7.46
66.976	26.94	35.93	-0.07	7.46
67.008	26.94	35.93	0.03	7.57
67.040	26.94	35.93	0.03	7.57
67.072	26.92	35.91	0.03	7.57
67.104	26.92	35.91	-0.07	7.47
67.136	26.92	35.91	-0.07	7.47
67.168	26.97	35.96	-0.07	7.47
67.200	26.97	35.96	0.00	7.54
67.232	26.97	35.96	0.00	7.54
67.264	26.98	35.97	0.00	7.54
67.296	26.98	35.97	-0.02	7.51
67.328	26.98	35.97	-0.02	7.51
67.360	26.92	35.91	-0.02	7.51
67.392	26.92	35.91	-0.06	7.47
67.424	26.92	35.91	-0.06	7.47
67.456	26.95	35.94	-0.06	7.47
67.488	26.95	35.94	0.03	7.56
67.520	26.95	35.94	0.03	7.56
67.552	27.04	36.03	0.03	7.56
67.584	27.04	36.03	-0.07	7.47
67.616	27.04	36.03	-0.07	7.47
67.648	27.00	35.99	-0.07	7.47
67.680	27.00	35.99	0.00	7.54
67.712	27.00	35.99	0.00	7.54
67.744	26.93	35.92	0.00	7.54
67.776	26.93	35.92	-0.02	7.51
67.808	26.93	35.92	-0.02	7.51
67.840	27.00	35.99	-0.02	7.51
67.872	27.00	35.99	-0.07	7.47
67.904	27.00	35.99	-0.07	7.47
67.936	27.00	35.99	-0.07	7.47
67.968	27.00	35.99	0.04	7.57
68.000	27.00	35.99	0.04	7.57
68.032	27.01	36.00	0.04	7.57
68.064	27.01	36.00	-0.06	7.47
68.096	27.01	36.00	-0.06	7.47
68.128	27.01	36.00	-0.06	7.47
68.160	27.01	36.00	0.00	7.54
68.192	27.01	36.00	0.00	7.54
68.224	27.02	36.01	0.00	7.54
68.256	27.02	36.01	-0.02	7.51
68.288	27.02	36.01	-0.02	7.51
68.320	27.01	36.00	-0.02	7.51
68.352	27.01	36.00	-0.07	7.47
68.384	27.01	36.00	-0.07	7.47
68.416	26.99	35.98	-0.07	7.47
68.448	26.99	35.98	0.03	7.56
68.480	26.99	35.98	0.03	7.56
68.512	27.02	36.02	0.03	7.56
68.544	27.02	36.02	-0.07	7.47
68.576	27.02	36.02	-0.07	7.47
68.608	27.01	36.00	-0.07	7.47
68.640	27.01	36.00	0.01	7.54
68.672	27.01	36.00	0.01	7.54
68.704	26.96	35.95	0.01	7.54
68.736	26.96	35.95	-0.02	7.51
68.768	26.96	35.95	-0.02	7.51
68.800	26.96	35.95	-0.02	7.51
68.832	26.96	35.95	-0.06	7.47
68.864	26.96	35.95	-0.06	7.47
68.896	26.91	35.90	-0.06	7.47
68.928	26.91	35.90	0.04	7.57
68.960	26.91	35.90	0.04	7.57
68.992	26.98	35.97	0.04	7.57
69.024	26.98	35.97	-0.06	7.47
69.056	26.98	35.97	-0.06	7.47
69.088	27.06	36.05	-0.06	7.47
69.120	27.06	36.05	0.01	7.54
69.152	27.06	36.05	0.01	7.54
69.184	26.98	35.97	0.01	7.54
69.216	26.98	35.97	-0.02	7.51
69.248	26.98	35.97	-0.02	7.51
69.280	26.91	35.90	-0.02	7.51
69.312	26.91	35.90	-0.07	7.47
69.344	26.91	35.90	-0.07	7.47
69.376	26.95	35.94	-0.07	7.47
69.408	26.95	35.94	0.03	7.56
69.440	26.95	35.94	0.03	7.56
69.472	26.99	35.98	0.03	7.56
69.504	26.99	35.98	-0.07	7.47
69.536	26.99	35.98	-0.07	7.47
69.568	26.98	35.97	-0.07	7.47
69.600	26.98	35.97	0.01	7.54
69.632	26.98	35.97	0.01	7.54
69.664	26.92	35.91	0.01	7.54
69.696	26.92	35.91	-0.02	7.51
69.728	26.92	35.91	-0.02	7.51
69.760	27.04	36.03	-0.02	7.51
69.792	27.04	36.03	-0.07	7.47
69.824	27.04	36.03	-0.07	7.47
69.856	26.94	35.93	-0.07	7.47
69.888	26.94	35.93	0.03	7.56
69.920	26.94	35.93	0.03	7.56
69.952	27.03	36.02	0.03	7.56
69.984	27.03	36.02	-0.07	7.47
70.016	27.03	36.02	-0.07	7.47
70.048	27.05	36.04	-0.07	7.47
70.080	27.05	36.04	0.01	7.54
70.112	27.05	36.04	0.01	7.54
70.144	26.99	35.98	0.01	7.54
70.176	26.99	35.98	-0.02	7.51
70.208	26.99	35.98	-0.02	7.51
70.240	27.01	36.00	-0.02	7.51
70.272	27.01	36.00	-0.07	7.47
70.304	27.01	36.00	-0.07	7.47
70.336	27.05	36.04	-0.07	7.47
70.368	27.05	36.04	0.03	7.57
70.400	27.05	36.04	0.03	7.57
70.432	27.12	36.11	0.03	7.57
70.464	27.12	36.11	-0.07	7.46
70.496	27.12	36.11	-0.07	7.46
70.528	27.04	36.03	-0.07	7.46
70.560	27.04	36.03	0.01	7.54
70.592	27.04	36.03	0.01	7.54
70.624	26.98	35.97	0.01	7.54
70.656	26.98	35.97	-0.02	7.51
70.688	26.98	35.97	-0.02	7.51
70.720	27.02	36.01	-0.02	7.51
70.752	27.02	36.01	-0.06	7.47
70.784	27.02	36.01	-0.06	7.47
70.816	26.94	35.93	-0.06	7.47
70.848	26.94	35.93	0.04	7.57
70.880	26.94	35.93	0.04	7.57
70.912	27.00	35.99	0.04	7.57
70.944	27.00	35.99	-0.06	7.47
70.976	27.00	35.99	-0.06	7.47
71.008	26.94	35.93	-0.06	7.47
71.040	26.94	35.93	0.01	7.54
71.072	26.94	35.93	0.01	7.54
71.104	26.97	35.96	0.01	7.54
71.136	26.97	35.96	-0.02	7.51
71.168	26.97	35.96	-0.02	7.51
71.200	27.01	36.00	-0.02	7.51
71.232	27.01	36.00	-0.07	7.47
71.264	27.01	36.00	-0.07	7.47
71.296	27.07	36.06	-0.07	7.47
71.328	27.07	36.06	0.03	7.57
71.360	27.07	36.06	0.03	7.57
71.392	27.06	36.05	0.03	7.57
71.424	27.06	36.05	-0.06	7.47
71.456	27.06	36.05	-0.06	7.47
71.488	27.02	36.01	-0.06	7.47
71.520	27.02	36.01	0.01	7.54
71.552	27.02	36.01	0.01	7.54
71.584	27.04	36.03	0.01	7.54
71.616	27.04	36.03	-0.02	7.51
71.648	27.04	36.03	-0.02	7.51
71.680	27.07	36.06	-0.02	7.51
71.712	27.07	36.06	-0.06	7.47
71.744	27.07	36.06	-0.06	7.47
71.776	27.04	36.03	-0.06	7.47
71.808	27.04	36.03	0.04	7.57
71.840	27.04	36.03	0.04	7.57
71.872	27.08	36.07	0.04	7.57
71.904	27.08	36.07	-0.07	7.47
71.936	27.08	36.07	-0.07	7.47
71.968	27.03	36.02	-0.07	7.47
72.000	27.03	36.02	0.00	7.54
72.032	27.03	36.02	0.00	7.54
72.064	26.99	35.98	0.00	7.54
72.096	26.99	35.98	-0.02	7.51
72.128	26.99	35.98	-0.02	7.51
72.160	26.98	35.97	-0.02	7.51
72.192	26.98	35.97	-0.06	7.47
72.224	26.98	35.97	-0.06	7.47
72.256	27.04	36.03	-0.06	7.47
72.288	27.04	36.03	0.03	7.57
72.320	27.04	36.03	0.03	7.57
72.352	27.07	36.06	0.03	7.57
72.384	27.07	36.06	-0.06	7.47
72.416	27.07	36.06	-0.06	7.47
72.448	27.01	36.00	-0.06	7.47
72.480	27.01	36.00	0.01	7.54
72.512	27.01	36.00	0.01	7.54
72.544	27.00	35.99	0.01	7.54
72.576	27.00	35.99	-0.01	7.52
72.608	27.00	35.99	-0.01	7.52
72.640	27.01	36.00	-0.01	7.52
72.672	27.01	36.00	-0.07	7.46
72.704	27.01	36.00	-0.07	7.46
72.736	26.96	35.95	-0.07	7.46
72.768	26.96	35.95	0.03	7.56
72.800	26.96	35.95	0.03	7.56
72.832	27.04	36.03	0.03	7.56
72.864	27.04	36.03	-0.06	7.47
72.896	27.04	36.03	-0.06	7.47
72.928	26.99	35.98	-0.06	7.47
72.960	26.99	35.98	0.01	7.54
72.992	26.99	35.98	0.01	7.54
73.024	26.99	35.98	0.01	7.54
73.056	26.99	35.98	-0.01	7.52
73.088	26.99	35.98	-0.01	7.52
73.120	27.00	35.99	-0.01	7.52
73.152	27.00	35.99	-0.07	7.46
73.184	27.00	35.99	-0.07	7.46
73.216	27.10	36.09	-0.07	7.46
73.248	27.10	36.09	0.03	7.56
73.280	27.10	36.09	0.03	7.56
73.312	26.99	35.98	0.03	7.56
73.344	26.99	35.98	-0.06	7.47
73.376	26.99	35.98	-0.06	7.47
73.408	26.97	35.96	-0.06	7.47
73.440	26.97	35.96	0.01	7.54
73.472	26.97	35.96	0.01	7.54
73.504	27.01	36.00	0.01	7.54
73.536	27.01	36.00	-0.02	7.51
73.568	27.01	36.00	-0.02	7.51
73.600	26.99	35.98	-0.02	7.51
73.632	26.99	35.98	-0.06	7.47
73.664	26.99	35.98	-0.06	7.47
73.696	27.04	36.03	-0.06	7.47
73.728	27.04	36.03	0.03	7.56
73.760	27.04	36.03	0.03	7.56
73.792	27.08	36.07	0.03	7.56
73.824	27.08	36.07	-0.06	7.47
73.856	27.08	36.07	-0.06	7.47
73.888	27.10	36.09	-0.06	7.47
73.920	27.10	36.09	0.01	7.54
73.952	27.10	36.09	0.01	7.54
73.984	27.03	36.02	0.01	7.54
74.016	27.03	36.02	-0.02	7.51
74.048	27.03	36.02	-0.02	7.51
74.080	27.01	36.00	-0.02	7.51
74.112	27.01	36.00	-0.06	7.47
74.144	27.01	36.00	-0.06	7.47
74.176	27.10	36.09	-0.06	7.47
74.208	27.10	36.09	0.03	7.56
74.240	27.10	36.09	0.03	7.56
74.272	27.06	36.05	0.03	7.56
74.304	27.06	36.05	-0.07	7.47
74.336	27.06	36.05	-0.07	7.47
74.368	27.03	36.02	-0.07	7.47
74.400	27.03	36.02	0.01	7.54
74.432	27.03	36.02	0.01	7.54
74.464	27.06	36.05	0.01	7.54
74.496	27.06	36.05	-0.02	7.51
74.528	27.06	36.05	-0.02	7.51
74.560	27.05	36.04	-0.02	7.51
74.592	27.05	36.04	-0.06	7.47
74.624	27.05	36.04	-0.06	7.47
74.656	27.15	36.14	-0.06	7.47
74.688	27.15	36.14	0.03	7.56
74.720	27.15	36.14	0.03	7.56
74.752	27.17	36.16	0.03	7.56
74.784	27.17	36.16	-0.06	7.47
74.816	27.17	36.16	-0.06	7.47
74.848	27.17	36.16	-0.06	7.47
74.880	27.17	36.16	0.00	7.54
74.912	27.17	36.16	0.00	7.54
74.944	27.17	36.16	0.00	7.54
74.976	27.17	36.16	-0.02	7.51
75.008	27.17	36.16	-0.02	7.51
75.040	27.16	36.15	-0.02	7.51
75.072	27.16	36.15	-0.06	7.47
75.104	27.16	36.15	-0.06	7.47
75.136	27.25	36.24	-0.06	7.47
75.168	27.25	36.24	0.03	7.56
75.200	27.25	36.24	0.03	7.56
75.232	27.16	36.15	0.03	7.56
75.264	27.16	36.15	-0.06	7.47
75.296	27.16	36.15	-0.06	7.47
75.328	27.12	36.11	-0.06	7.47
75.360	27.12	36.11	0.01	7.54
75.392	27.12	36.11	0.01	7.54
75.424	27.18	36.17	0.01	7.54
75.456	27.18	36.17	-0.02	7.51
75.488	27.18	36.17	-0.02	7.51
75.520	27.12	36.11	-0.02	7.51
75.552	27.12	36.11	-0.07	7.47
75.584	27.12	36.11	-0.07	7.47
75.616	27.17	36.16	-0.07	7.47
75.648	27.17	36.16	0.03	7.56
75.680	27.17	36.16	0.03	7.56
75.712	27.16	36.15	0.03	7.56
75.744	27.16	36.15	-0.06	7.47
75.776	27.16	36.15	-0.06	7.47
75.808	27.05	36.04	-0.06	7.47
75.840	27.05	36.04	0.00	7.54
75.872	27.05	36.04	0.00	7.54
75.904	27.11	36.10	0.00	7.54
75.936	27.11	36.10	-0.01	7.53
75.968	27.11	36.10	-0.01	7.53
76.000	27.13	36.12	-0.01	7.53
76.032	27.13	36.12	-0.07	7.46
76.064	27.13	36.12	-0.07	7.46
76.096	27.18	36.17	-0.07	7.46
76.128	27.18	36.17	0.03	7.56
76.160	27.18	36.17	0.03	7.56
76.192	27.09	36.08	0.03	7.56
76.224	27.09	36.08	-0.06	7.47
76.256	27.09	36.08	-0.06	7.47
76.288	27.09	36.08	-0.06	7.47
76.320	27.09	36.08	-0.00	7.53
76.352	27.09	36.08	-0.00	7.53
76.384	27.08	36.07	-0.00	7.53
76.416	27.08	36.07	-0.01	7.52
76.448	27.08	36.07	-0.01	7.52
76.480	27.03	36.02	-0.01	7.52
76.512	27.03	36.02	-0.07	7.46
76.544	27.03	36.02	-0.07	7.46
76.576	27.06	36.05	-0.07	7.46
76.608	27.06	36.05	0.03	7.56
76.640	27.06	36.05	0.03	7.56
76.672	27.02	36.02	0.03	7.56
76.704	27.02	36.02	-0.06	7.47
76.736	27.02	36.02	-0.06	7.47
76.768	27.03	36.02	-0.06	7.47
76.800	27.03	36.02	-0.00	7.53
76.832	27.03	36.02	-0.00	7.53
76.864	27.11	36.10	-0.00	7.53
76.896	27.11	36.10	-0.01	7.53
76.928	27.11	36.10	-0.01	7.53
76.960	27.13	36.12	-0.01	7.53
76.992	27.13	36.12	-0.07	7.46
77.024	27.13	36.12	-0.07	7.46
77.056	27.11	36.10	-0.07	7.46
77.088	27.11	36.10	0.03	7.56
77.120	27.11	36.10	0.03	7.56
77.152	27.05	36.04	0.03	7.56
77.184	27.05	36.04	-0.06	7.47
77.216	27.05	36.04	-0.06	7.47
77.248	27.03	36.02	-0.06	7.47
77.280	27.03	36.02	-0.00	7.53
77.312	27.03	36.02	-0.00	7.53
77.344	27.08	36.07	-0.00	7.53
77.376	27.08	36.07	-0.00	7.53
77.408	27.08	36.07	-0.00	7.53
77.440	27.04	36.03	-0.00	7.53
77.472	27.04	36.03	-0.07	7.46
77.504	27.04	36.03	-0.07	7.46
77.536	27.02	36.01	-0.07	7.46
77.568	27.02	36.01	0.03	7.56
77.600	27.02	36.01	0.03	7.56
77.632	27.07	36.06	0.03	7.56
77.664	27.07	36.06	-0.06	7.47
77.696	27.07	36.06	-0.06	7.47
77.728	27.10	36.09	-0.06	7.47
77.760	27.10	36.09	-0.00	7.53
77.792	27.10	36.09	-0.00	7.53
77.824	27.15	36.14	-0.00	7.53
77.856	27.15	36.14	-0.00	7.53
77.888	27.15	36.14	-0.00	7.53
77.920	27.17	36.16	-0.00	7.53
77.952	27.17	36.16	-0.07	7.46
77.984	27.17	36.16	-0.07	7.46
78.016	27.08	36.07	-0.07	7.46
78.048	27.08	36.07	0.02	7.55
78.080	27.08	36.07	0.02	7.55
78.112	27.08	36.07	0.02	7.55
78.144	27.08	36.07	-0.06	7.47
78.176	27.08	36.07	-0.06	7.47
78.208	27.10	36.09	-0.06	7.47
78.240	27.10	36.09	-0.01	7.53
78.272	27.10	36.09	-0.01	7.53
78.304	27.10	36.09	-0.01	7.53
78.336	27.10	36.09	-0.00	7.53
78.368	27.10	36.09	-0.00	7.53
78.400	27.09	36.08	-0.00	7.53
78.432	27.09	36.08	-0.07	7.46
78.464	27.09	36.08	-0.07	7.46
78.496	27.12	36.11	-0.07	7.46
78.528	27.12	36.11	0.02	7.55
78.560	27.12	36.11	0.02	7.55
78.592	27.15	36.14	0.02	7.55
78.624	27.15	36.14	-0.07	7.47
78.656	27.15	36.14	-0.07	7.47
78.688	27.17	36.16	-0.07	7.47
78.720	27.17	36.16	-0.00	7.53
78.752	27.17	36.16	-0.00	7.53
78.784	27.13	36.12	-0.00	7.53
78.816	27.13	36.12	-0.01	7.52
78.848	27.13	36.12	-0.01	7.52
78.880	27.17	36.16	-0.01	7.52
78.912	27.17	36.16	-0.07	7.46
78.944	27.17	36.16	-0.07	7.46
78.976	27.12	36.11	-0.07	7.46
79.008	27.12	36.11	0.02	7.55
79.040	27.12	36.11	0.02	7.55
79.072	27.10	36.09	0.02	7.55
79.104	27.10	36.09	-0.06	7.47
79.136	27.10	36.09	-0.06	7.47
79.168	27.08	36.07	-0.06	7.47
79.200	27.08	36.07	-0.01	7.53
79.232	27.08	36.07	-0.01	7.53
79.264	27.03	36.02	-0.01	7.53
79.296	27.03	36.02	-0.00	7.53
79.328	27.03	36.02	-0.00	7.53
79.360	27.13	36.12	-0.00	7.53
79.392	27.13	36.12	-0.08	7.45
79.424	27.13	36.12	-0.08	7.45
79.456	27.10	36.09	-0.08	7.45
79.488	27.10	36.09	0.02	7.55
79.520	27.10	36.09	0.02	7.55
79.552	27.20	36.19	0.02	7.55
79.584	27.20	36.19	-0.06	7.47
79.616	27.20	36.19	-0.06	7.47
79.648	27.14	36.13	-0.06	7.47
79.680	27.14	36.13	-0.01	7.52
79.712	27.14	36.13	-0.01	7.52
79.744	27.12	36.11	-0.01	7.52
79.776	27.12	36.11	0.00	7.53
79.808	27.12	36.11	0.00	7.53
79.840	27.18	36.17	0.00	7.53
79.872	27.18	36.17	-0.08	7.45
79.904	27.18	36.17	-0.08	7.45
79.936	27.10	36.09	-0.08	7.45
79.968	27.10	36.09	0.02	7.55
80.000	27.10	36.09	0.02	7.55
80.032	27.06	36.05	0.02	7.55
80.064	27.06	36.05	-0.06	7.47
80.096	27.06	36.05	-0.06	7.47
80.128	27.14	36.13	-0.06	7.47
80.160	27.14	36.13	-0.01	7.52
80.192	27.14	36.13	-0.01	7.52
80.224	27.06	36.05	-0.01	7.52
80.256	27.06	36.05	0.00	7.53
80.288	27.06	36.05	0.00	7.53
80.320	27.12	36.11	0.00	7.53
80.352	27.12	36.11	-0.08	7.45
80.384	27.12	36.11	-0.08	7.45
80.416	27.14	36.13	-0.08	7.45
80.448	27.14	36.13	0.02	7.55
80.480	27.14	36.13	0.02	7.55
80.512	27.12	36.11	0.02	7.55
80.544	27.12	36.11	-0.06	7.47
80.576	27.12	36.11	-0.06	7.47
80.608	27.11	36.10	-0.06	7.47
80.640	27.11	36.10	-0.02	7.52
80.672	27.11	36.10	-0.02	7.52
80.704	27.11	36.10	-0.02	7.52
80.736	27.11	36.10	0.01	7.54
80.768	27.11	36.10	0.01	7.54
80.800	27.21	36.20	0.01	7.54
80.832	27.21	36.20	-0.08	7.45
80.864	27.21	36.20	-0.08	7.45
80.896	27.16	36.15	-0.08	7.45
80.928	27.16	36.15	0.02	7.55
80.960	27.16	36.15	0.02	7.55
80.992	27.13	36.12	0.02	7.55
81.024	27.13	36.12	-0.06	7.47
81.056	27.13	36.12	-0.06	7.47
81.088	27.10	36.09	-0.06	7.47
81.120	27.10	36.09	-0.01	7.52
81.152	27.10	36.09	-0.01	7.52
81.184	27.09	36.08	-0.01	7.52
81.216	27.09	36.08	0.01	7.54
81.248	27.09	36.08	0.01	7.54
81.280	27.17	36.16	0.01	7.54
81.312	27.17	36.16	-0.08	7.45
81.344	27.17	36.16	-0.08	7.45
81.376	27.14	36.13	-0.08	7.45
81.408	27.14	36.13	0.02	7.55
81.440	27.14	36.13	0.02	7.55
81.472	27.08	36.07	0.02	7.55
81.504	27.08	36.07	-0.06	7.47
81.536	27.08	36.07	-0.06	7.47
81.568	27.10	36.09	-0.06	7.47
81.600	27.10	36.09	-0.02	7.51
81.632	27.10	36.09	-0.02	7.51
81.664	27.17	36.16	-0.02	7.51
81.696	27.17	36.16	0.01	7.54
81.728	27.17	36.16	0.01	7.54
81.760	27.17	36.16	0.01	7.54
81.792	27.17	36.16	-0.08	7.45
81.824	27.17	36.16	-0.08	7.45
81.856	27.11	36.10	-0.08	7.45
81.888	27.11	36.10	0.01	7.55
81.920	27.11	36.10	0.01	7.55
81.952	27.03	36.02	0.01	7.55
81.984	27.03	36.02	-0.06	7.47
82.016	27.03	36.02	-0.06	7.47
82.048	27.09	36.08	-0.06	7.47
82.080	27.09	36.08	-0.02	7.51
82.112	27.09	36.08	-0.02	7.51
82.144	27.11	36.10	-0.02	7.51
82.176	27.11	36.10	0.01	7.54
82.208	27.11	36.10	0.01	7.54
82.240	27.12	36.11	0.01	7.54
82.272	27.12	36.11	-0.08	7.45
82.304	27.12	36.11	-0.08	7.45
82.336	27.11	36.10	-0.08	7.45
82.368	27.11	36.10	0.01	7.54
82.400	27.11	36.10	0.01	7.54
82.432	27.06	36.05	0.01	7.54
82.464	27.06	36.05	-0.06	7.47
82.496	27.06	36.05	-0.06	7.47
82.528	27.13	36.12	-0.06	7.47
82.560	27.13	36.12	-0.03	7.50
82.592	27.13	36.12	-0.03	7.50
82.624	27.15	36.14	-0.03	7.50
82.656	27.15	36.14	0.01	7.54
82.688	27.15	36.14	0.01	7.54
82.720	27.10	36.09	0.01	7.54
82.752	27.10	36.09	-0.08	7.45
82.784	27.10	36.09	-0.08	7.45
82.816	27.09	36.08	-0.08	7.45
82.848	27.09	36.08	0.01	7.54
82.880	27.09	36.08	0.01	7.54
82.912	27.09	36.08	0.01	7.54
82.944	27.09	36.08	-0.05	7.48
82.976	27.09	36.08	-0.05	7.48
83.008	27.09	36.08	-0.05	7.48
83.040	27.09	36.08	-0.03	7.50
83.072	27.09	36.08	-0.03	7.50
83.104	27.05	36.04	-0.03	7.50
83.136	27.05	36.04	0.02	7.55
83.168	27.05	36.04	0.02	7.55
83.200	27.10	36.09	0.02	7.55
83.232	27.10	36.09	-0.07	7.46
83.264	27.10	36.09	-0.07	7.46
83.296	27.07	36.06	-0.07	7.46
83.328	27.07	36.06	0.02	7.55
83.360	27.07	36.06	0.02	7.55
83.392	27.02	36.02	0.02	7.55
83.424	27.02	36.02	-0.05	7.48
83.456	27.02	36.02	-0.05	7.48
83.488	27.08	36.07	-0.05	7.48
83.520	27.08	36.07	-0.04	7.50
83.552	27.08	36.07	-0.04	7.50
83.584	27.13	36.12	-0.04	7.50
83.616	27.13	36.12	0.01	7.55
83.648	27.13	36.12	0.01	7.55
83.680	27.08	36.07	0.01	7.55
83.712	27.08	36.07	-0.08	7.45
83.744	27.08	36.07	-0.08	7.45
83.776	27.01	36.00	-0.08	7.45
83.808	27.01	36.00	0.01	7.54
83.840	27.01	36.00	0.01	7.54
83.872	27.03	36.02	0.01	7.54
83.904	27.03	36.02	-0.05	7.48
83.936	27.03	36.02	-0.05	7.48
83.968	27.09	36.08	-0.05	7.48
84.000	27.09	36.08	-0.04	7.49
84.032	27.09	36.08	-0.04	7.49
84.064	27.09	36.08	-0.04	7.49
84.096	27.09	36.08	0.02	7.55
84.128	27.09	36.08	0.02	7.55
84.160	27.06	36.05	0.02	7.55
84.192	27.06	36.05	-0.08	7.45
84.224	27.06	36.05	-0.08	7.45
84.256	27.04	36.03	-0.08	7.45
84.288	27.04	36.03	0.02	7.55
84.320	27.04	36.03	0.02	7.55
84.352	27.03	36.02	0.02	7.55
84.384	27.03	36.02	-0.05	7.48
84.416	27.03	36.02	-0.05	7.48
84.448	26.97	35.96	-0.05	7.48
84.480	26.97	35.96	-0.04	7.49
84.512	26.97	35.96	-0.04	7.49
84.544	27.05	36.04	-0.04	7.49
84.576	27.05	36.04	0.02	7.55
84.608	27.05	36.04	0.02	7.55
84.640	27.10	36.09	0.02	7.55
84.672	27.10	36.09	-0.07	7.46
84.704	27.10	36.09	-0.07	7.46
84.736	27.10	36.09	-0.07	7.46
84.768	27.10	36.09	0.01	7.55
84.800	27.10	36.09	0.01	7.55
84.832	27.13	36.12	0.01	7.55
84.864	27.13	36.12	-0.05	7.49
84.896	27.13	36.12	-0.05	7.49
84.928	27.11	36.10	-0.05	7.49
84.960	27.11	36.10	-0.04	7.49
84.992	27.11	36.10	-0.04	7.49
85.024	27.11	36.10	-0.04	7.49
85.056	27.11	36.10	0.02	7.55
85.088	27.11	36.10	0.02	7.55
85.120	27.09	36.08	0.02	7.55
85.152	27.09	36.08	-0.07	7.46
85.184	27.09	36.08	-0.07	7.46
85.216	27.02	36.02	-0.07	7.46
85.248	27.02	36.02	0.01	7.54
85.280	27.02	36.02	0.01	7.54
85.312	27.05	36.04	0.01	7.54
85.344	27.05	36.04	-0.04	7.49
85.376	27.05	36.04	-0.04	7.49
85.408	26.99	35.98	-0.04	7.49
85.440	26.99	35.98	-0.04	7.49
85.472	26.99	35.98	-0.04	7.49
85.504	27.07	36.06	-0.04	7.49
85.536	27.07	36.06	0.03	7.56
85.568	27.07	36.06	0.03	7.56
85.600	27.05	36.04	0.03	7.56
85.632	27.05	36.04	-0.07	7.46
85.664	27.05	36.04	-0.07	7.46
85.696	26.99	35.98	-0.07	7.46
85.728	26.99	35.98	0.02	7.55
85.760	26.99	35.98	0.02	7.55
85.792	27.01	36.00	0.02	7.55
85.824	27.01	36.00	-0.04	7.49
85.856	27.01	36.00	-0.04	7.49
85.888	26.97	35.96	-0.04	7.49
85.920	26.97	35.96	-0.05	7.48
85.952	26.97	35.96	-0.05	7.48
85.984	27.06	36.05	-0.05	7.48
86.016	27.06	36.05	0.02	7.55
86.048	27.06	36.05	0.02	7.55
86.080	27.09	36.08	0.02	7.55
86.112	27.09	36.08	-0.07	7.46
86.144	27.09	36.08	-0.07	7.46
86.176	27.13	36.12	-0.07	7.46
86.208	27.13	36.12	0.02	7.55
86.240	27.13	36.12	0.02	7.55
86.272	27.10	36.09	0.02	7.55
86.304	27.10	36.09	-0.04	7.49
86.336	27.10	36.09	-0.04	7.49
86.368	27.07	36.06	-0.04	7.49
86.400	27.07	36.06	-0.05	7.48
86.432	27.07	36.06	-0.05	7.48
86.464	27.08	36.07	-0.05	7.48
86.496	27.08	36.07	0.03	7.56
86.528	27.08	36.07	0.03	7.56
86.560	27.04	36.03	0.03	7.56
86.592	27.04	36.03	-0.07	7.46
86.624	27.04	36.03	-0.07	7.46
86.656	27.04	36.03	-0.07	7.46
86.688	27.04	36.03	0.01	7.54
86.720	27.04	36.03	0.01	7.54
86.752	27.10	36.09	0.01	7.54
86.784	27.10	36.09	-0.04	7.49
86.816	27.10	36.09	-0.04	7.49
86.848	27.07	36.06	-0.04	7.49
86.880	27.07	36.06	-0.05	7.48
86.912	27.07	36.06	-0.05	7.48
86.944	27.09	36.08	-0.05	7.48
86.976	27.09	36.08	0.03	7.57
87.008	27.09	36.08	0.03	7.57
87.040	27.14	36.13	0.03	7.57
87.072	27.14	36.13	-0.07	7.47
87.104	27.14	36.13	-0.07	7.47
87.136	27.16	36.15	-0.07	7.47
87.168	27.16	36.15	0.01	7.54
87.200	27.16	36.15	0.01	7.54
87.232	27.18	36.17	0.01	7.54
87.264	27.18	36.17	-0.03	7.50
87.296	27.18	36.17	-0.03	7.50
87.328	27.11	36.10	-0.03	7.50
87.360	27.11	36.10	-0.05	7.48
87.392	27.11	36.10	-0.05	7.48
87.424	27.15	36.14	-0.05	7.48
87.456	27.15	36.14	0.03	7.56
87.488	27.15	36.14	0.03	7.56
87.520	27.07	36.06	0.03	7.56
87.552	27.07	36.06	-0.07	7.46
87.584	27.07	36.06	-0.07	7.46
87.616	26.01	35.00	-0.07	7.46
87.648	26.01	35.00	0.01	7.54
87.680	26.01	35.00	0.01	7.54
87.712	8.05	17.04	0.01	7.54
87.744	8.05	17.04	-0.03	7.50
87.776	8.05	17.04	-0.03	7.50
87.808	-1.70	7.29	-0.03	7.50
87.840	-1.70	7.29	-0.06	7.47
87.872	-1.70	7.29	-0.06	7.47
87.904	-5.48	3.51	-0.06	7.47
87.936	-5.48	3.51	0.02	7.55
87.968	-5.48	3.51	0.02	7.55
