Tempo(s)	P0(KPa)	P0+Coluna(KPa)	P1(KPa)	P1+Coluna(KPa)
0.000	1.15	10.29	0.06	7.75
0.027	0.95	10.09	0.01	7.70
0.050	1.22	10.37	0.04	7.73
0.072	1.07	10.22	-0.06	7.64
0.095	1.04	10.19	0.05	7.75
0.117	0.34	9.48	-0.04	7.66
0.140	0.16	9.30	0.00	7.69
0.162	0.19	9.33	0.05	7.74
0.185	0.08	9.22	-0.05	7.64
0.207	0.16	9.31	0.05	7.74
0.230	0.12	9.26	-0.04	7.65
0.253	0.12	9.26	0.00	7.69
0.275	0.25	9.39	0.05	7.74
0.298	0.33	9.48	-0.06	7.64
0.321	0.43	9.58	0.05	7.74
0.343	0.54	9.68	-0.04	7.66
0.366	0.56	9.70	0.00	7.69
0.389	0.27	9.41	0.05	7.74
0.411	0.21	9.36	0.05	7.74
0.437	0.11	9.26	0.00	7.69
0.459	0.01	9.15	0.05	7.74
0.482	0.03	9.17	-0.05	7.64
0.505	-0.02	9.13	0.05	7.74
0.527	-0.06	9.09	-0.03	7.66
0.550	-0.06	9.08	0.00	7.69
0.573	-0.15	8.99	0.05	7.75
0.595	-0.21	8.93	-0.05	7.64
0.618	-0.22	8.93	0.05	7.74
0.640	-0.24	8.90	-0.03	7.66
0.663	-0.26	8.88	0.00	7.69
0.686	-0.25	8.90	0.05	7.74
0.708	-0.23	8.91	-0.05	7.64
0.731	-0.22	8.93	0.05	7.74
0.754	-0.22	8.93	-0.03	7.66
0.776	-0.21	8.93	0.01	7.70
0.800	-0.20	8.94	0.03	7.72
0.821	-0.21	8.93	-0.06	7.64
0.844	-0.23	8.92	-0.01	7.68
0.867	-0.21	8.94	0.05	7.75
0.890	-0.21	8.93	-0.05	7.64
0.912	-0.21	8.94	0.05	7.74
0.935	-0.20	8.94	-0.04	7.66
0.958	-0.18	8.97	0.01	7.70
0.980	-0.17	8.97	0.05	7.74
1.003	-0.16	8.99	-0.05	7.64
1.026	-0.16	8.98	0.06	7.75
1.047	-0.17	8.98	-0.03	7.66
1.069	-0.15	8.99	0.01	7.70
1.092	-0.12	9.03	0.05	7.74
1.115	-0.10	9.05	-0.05	7.64
1.137	-0.10	9.04	0.05	7.75
1.166	-0.07	9.07	0.05	7.74
1.189	-0.05	9.10	-0.04	7.66
1.212	-0.07	9.07	0.00	7.70
1.234	-0.08	9.06	0.05	7.74
1.257	-0.14	9.01	-0.02	7.67
1.280	-0.07	9.07	0.01	7.70
1.303	-0.05	9.09	0.05	7.74
1.326	-0.01	9.13	-0.05	7.64
1.348	-0.10	9.04	0.05	7.74
1.371	-0.17	8.97	-0.03	7.66
1.394	-0.20	8.95	0.01	7.70
1.416	-0.21	8.94	0.05	7.75
1.439	-0.21	8.94	-0.05	7.64
1.462	-0.23	8.91	0.05	7.74
1.484	-0.23	8.91	-0.03	7.66
1.507	-0.22	8.93	0.01	7.70
1.529	-0.21	8.94	0.05	7.74
1.552	-0.20	8.95	-0.05	7.64
1.575	-0.19	8.95	0.05	7.74
1.597	-0.18	8.97	-0.03	7.66
1.620	-0.17	8.97	0.01	7.70
1.643	-0.17	8.97	0.05	7.75
1.665	-0.18	8.96	-0.05	7.64
1.688	-0.23	8.91	-0.05	7.64
1.713	-0.22	8.92	0.05	7.74
1.736	-0.24	8.90	-0.05	7.64
1.758	-0.27	8.88	0.05	7.74
1.781	-0.28	8.87	-0.03	7.66
1.804	-0.29	8.85	0.01	7.70
1.826	-0.30	8.84	0.05	7.74
1.849	-0.31	8.84	-0.05	7.64
1.871	-0.31	8.84	0.05	7.74
1.894	-0.31	8.84	-0.03	7.66
1.917	-0.31	8.83	0.01	7.70
1.939	-0.31	8.83	0.05	7.75
1.962	-0.31	8.83	-0.05	7.64
1.985	-0.31	8.83	0.05	7.74
2.007	-0.31	8.84	-0.04	7.66
2.030	-0.30	8.85	0.01	7.70
2.054	-0.29	8.85	0.02	7.71
2.075	-0.28	8.87	-0.05	7.64
2.098	-0.27	8.87	0.05	7.74
2.120	-0.30	8.84	-0.04	7.66
2.144	-0.28	8.87	0.05	7.75
2.167	-0.27	8.87	-0.05	7.64
2.189	-0.27	8.88	0.06	7.75
2.212	-0.26	8.89	-0.03	7.66
2.234	-0.25	8.89	0.05	7.74
2.264	-0.23	8.91	0.01	7.70
2.286	-0.23	8.92	0.05	7.75
2.309	-0.22	8.92	-0.05	7.64
2.332	-0.22	8.93	0.05	7.74
2.354	-0.21	8.93	-0.03	7.66
2.377	-0.21	8.94	0.00	7.69
2.399	-0.21	8.94	0.06	7.75
2.422	-0.20	8.94	-0.05	7.64
2.445	-0.20	8.94	0.05	7.74
2.467	-0.20	8.94	-0.03	7.66
2.490	-0.20	8.95	0.01	7.70
2.513	-0.19	8.95	0.06	7.75
2.535	-0.18	8.96	-0.06	7.64
2.558	-0.18	8.97	0.06	7.75
2.580	-0.17	8.98	-0.04	7.66
2.603	-0.16	8.99	0.00	7.69
2.625	-0.14	9.00	0.05	7.74
2.648	-0.13	9.01	-0.06	7.64
2.671	-0.13	9.01	0.05	7.74
2.693	-0.13	9.01	-0.03	7.66
2.716	-0.13	9.01	0.01	7.70
2.739	-0.14	9.01	0.05	7.75
2.761	-0.14	9.00	-0.05	7.64
2.784	-0.14	9.00	0.05	7.74
2.807	-0.14	9.01	-0.03	7.66
2.829	-0.14	9.01	0.00	7.69
2.852	-0.13	9.01	0.06	7.75
2.874	-0.12	9.02	-0.05	7.64
2.897	-0.12	9.03	0.05	7.74
2.920	-0.11	9.03	-0.04	7.66
2.942	-0.10	9.04	0.00	7.69
2.965	-0.10	9.05	0.05	7.75
2.988	-0.09	9.06	-0.05	7.64
3.010	-0.08	9.06	0.05	7.74
3.033	-0.07	9.07	-0.03	7.66
3.056	-0.06	9.08	0.00	7.70
3.078	-0.05	9.09	0.05	7.75
3.101	-0.06	9.09	-0.05	7.64
3.123	-0.06	9.09	0.05	7.74
3.146	-0.05	9.09	-0.03	7.66
3.169	-0.06	9.09	0.00	7.70
3.191	-0.06	9.09	0.05	7.74
3.214	-0.05	9.09	-0.05	7.64
3.237	-0.05	9.10	0.05	7.74
3.259	-0.05	9.10	-0.04	7.66
3.282	-0.05	9.10	0.00	7.70
3.305	-0.05	9.10	0.05	7.74
3.327	-0.05	9.10	-0.05	7.65
3.351	-0.05	9.10	0.06	7.75
3.381	-0.04	9.10	0.05	7.74
3.403	-0.06	9.08	-0.04	7.66
3.431	-0.03	9.11	-0.04	7.65
3.453	-0.03	9.11	0.01	7.70
3.476	-0.03	9.12	0.05	7.75
3.499	-0.03	9.12	-0.05	7.64
3.521	-0.02	9.12	0.05	7.74
3.544	-0.02	9.13	-0.03	7.66
3.566	-0.01	9.13	0.01	7.70
3.589	-0.02	9.13	0.05	7.75
3.612	-0.02	9.13	-0.05	7.64
3.634	-0.01	9.14	0.05	7.74
3.657	-0.00	9.14	-0.04	7.66
3.680	0.00	9.15	0.01	7.70
3.702	0.01	9.15	0.05	7.74
3.725	0.01	9.15	-0.05	7.64
3.748	0.01	9.15	0.05	7.74
3.770	0.01	9.15	-0.03	7.66
3.793	0.01	9.16	0.01	7.70
3.815	0.01	9.15	0.05	7.74
3.838	0.01	9.16	-0.05	7.64
3.861	0.01	9.16	0.06	7.75
3.883	0.02	9.16	-0.03	7.66
3.906	0.02	9.17	0.01	7.70
3.928	0.02	9.16	0.05	7.74
3.951	0.02	9.16	-0.05	7.64
3.973	0.01	9.16	0.05	7.74
3.996	0.02	9.16	-0.03	7.66
4.019	0.02	9.16	0.00	7.70
4.041	0.02	9.16	0.05	7.75
4.064	0.02	9.16	-0.05	7.64
4.087	0.01	9.15	0.05	7.74
4.109	0.01	9.15	-0.03	7.66
4.132	0.01	9.15	0.01	7.70
4.155	0.01	9.16	0.05	7.75
4.177	0.01	9.15	-0.05	7.64
4.200	0.01	9.16	0.05	7.74
4.222	0.01	9.16	-0.03	7.66
4.245	0.01	9.16	0.01	7.70
4.268	0.01	9.15	0.06	7.75
4.290	0.00	9.15	-0.05	7.64
4.313	0.00	9.15	0.05	7.74
4.336	0.00	9.15	-0.03	7.66
4.358	-0.00	9.14	0.01	7.70
4.381	-0.00	9.14	0.06	7.75
4.404	-0.01	9.14	-0.05	7.64
4.426	-0.01	9.13	0.06	7.75
4.453	-0.01	9.13	0.01	7.70
4.476	-0.01	9.14	0.05	7.74
4.499	-0.01	9.13	-0.05	7.64
4.521	-0.01	9.13	0.05	7.74
4.544	-0.01	9.13	-0.06	7.64
4.573	-0.01	9.13	-0.04	7.66
4.596	-0.01	9.13	0.01	7.70
4.618	-0.01	9.13	0.05	7.74
4.641	-0.01	9.13	-0.05	7.64
4.664	-0.01	9.13	0.06	7.75
4.687	-0.02	9.13	-0.04	7.65
4.709	-0.01	9.14	0.01	7.70
4.732	-0.01	9.13	0.05	7.75
4.754	-0.01	9.13	-0.05	7.64
4.777	-0.01	9.13	0.05	7.75
4.799	-0.01	9.13	-0.03	7.66
4.822	-0.01	9.13	0.01	7.70
4.845	-0.01	9.13	0.05	7.74
4.867	-0.01	9.14	-0.05	7.64
4.890	-0.01	9.13	0.05	7.75
4.913	-0.01	9.13	-0.03	7.66
4.935	-0.01	9.13	0.01	7.70
4.958	-0.01	9.13	0.05	7.75
4.981	-0.01	9.13	-0.05	7.64
5.003	-0.01	9.13	0.05	7.74
5.026	-0.01	9.13	-0.04	7.66
5.048	-0.01	9.13	0.01	7.70
5.071	-0.01	9.13	0.05	7.74
5.094	-0.01	9.13	-0.06	7.64
5.116	-0.01	9.13	0.06	7.75
5.139	-0.01	9.14	-0.03	7.66
5.162	-0.01	9.13	0.01	7.71
5.184	-0.01	9.13	0.05	7.74
5.207	-0.01	9.13	-0.05	7.64
5.230	-0.02	9.13	0.05	7.75
5.252	-0.02	9.12	-0.03	7.66
5.275	-0.02	9.13	0.02	7.71
5.297	-0.02	9.12	0.05	7.74
5.320	-0.02	9.13	-0.06	7.64
5.343	-0.02	9.12	0.06	7.75
5.365	-0.02	9.12	-0.03	7.66
5.388	-0.02	9.12	0.02	7.72
5.411	-0.02	9.12	0.04	7.73
5.433	-0.02	9.12	-0.05	7.64
5.456	-0.02	9.12	0.06	7.75
5.479	-0.02	9.12	-0.03	7.66
5.501	-0.02	9.12	0.02	7.72
5.524	-0.03	9.12	0.04	7.73
5.547	-0.03	9.12	0.06	7.75
5.573	-0.03	9.12	-0.05	7.64
5.595	-0.03	9.12	0.06	7.75
5.618	-0.02	9.12	-0.04	7.65
5.641	-0.02	9.12	0.03	7.72
5.663	-0.03	9.12	-0.03	7.66
5.693	-0.02	9.12	0.04	7.73
5.715	-0.02	9.12	-0.05	7.64
5.738	-0.02	9.12	0.06	7.75
5.760	-0.02	9.12	-0.03	7.66
5.783	-0.02	9.12	0.03	7.72
5.806	-0.02	9.12	0.04	7.73
5.828	-0.02	9.12	-0.05	7.64
5.851	2.59	11.73	0.06	7.75
5.874	15.30	24.44	-0.03	7.66
5.896	24.17	33.31	0.03	7.72
5.919	28.29	37.44	0.04	7.73
5.942	27.99	37.14	-0.05	7.64
5.964	22.60	31.74	0.06	7.75
5.987	19.87	29.02	-0.03	7.66
6.010	22.36	31.51	0.06	7.75
6.038	22.93	32.07	0.03	7.72
6.061	22.47	31.61	0.03	7.72
6.083	21.01	30.15	-0.05	7.64
6.106	19.14	28.29	0.06	7.76
6.129	16.93	26.07	-0.03	7.66
6.151	14.56	23.71	0.03	7.72
6.174	14.19	23.33	0.03	7.72
6.197	20.73	29.87	-0.05	7.64
6.219	26.50	35.65	0.07	7.76
6.242	29.54	38.68	-0.04	7.66
6.264	27.04	36.18	0.04	7.73
6.287	21.63	30.78	0.03	7.72
6.310	20.69	29.83	-0.05	7.64
6.332	23.02	32.16	0.06	7.75
6.355	23.19	32.34	-0.03	7.66
6.378	22.52	31.66	0.03	7.73
6.400	20.84	29.99	0.03	7.72
6.423	18.85	27.99	-0.05	7.64
6.446	16.49	25.64	0.06	7.75
6.468	14.18	23.32	-0.04	7.66
6.491	15.30	24.44	0.04	7.73
6.513	22.09	31.24	0.03	7.72
6.536	27.39	36.53	-0.05	7.65
6.559	29.57	38.71	0.06	7.75
6.581	26.04	35.18	-0.04	7.65
6.604	20.71	29.85	0.04	7.73
6.627	21.07	30.22	0.03	7.72
6.649	23.02	32.17	-0.02	7.68
6.670	23.00	32.15	0.06	7.75
6.693	22.25	31.40	-0.04	7.66
6.716	20.69	29.84	0.04	7.73
6.738	18.79	27.94	0.03	7.72
6.761	16.52	25.66	-0.05	7.64
6.783	14.10	23.24	0.06	7.75
6.806	16.98	26.12	0.01	7.70
6.833	23.95	33.09	-0.04	7.65
6.856	28.67	37.81	0.04	7.73
6.878	29.39	38.54	0.03	7.72
6.901	24.28	33.42	-0.05	7.64
6.924	20.16	29.30	0.06	7.76
6.946	21.95	31.09	-0.04	7.66
6.969	23.28	32.42	0.04	7.73
6.992	22.95	32.10	0.03	7.72
7.014	22.06	31.20	-0.05	7.64
7.037	20.21	29.35	0.06	7.75
7.059	18.25	27.39	-0.04	7.65
7.082	15.86	25.00	0.04	7.73
7.105	13.91	23.06	0.02	7.72
7.127	18.84	27.99	-0.05	7.64
7.150	25.04	34.18	0.06	7.75
7.173	29.29	38.43	-0.04	7.65
7.195	28.93	38.08	0.04	7.73
7.218	23.39	32.54	0.02	7.71
7.241	20.35	29.49	-0.05	7.65
7.263	22.61	31.75	0.06	7.75
7.286	23.33	32.48	-0.04	7.65
7.308	22.91	32.06	0.04	7.73
7.332	21.78	30.92	-0.02	7.67
7.354	19.77	28.92	-0.05	7.64
7.376	17.63	26.77	0.06	7.75
7.399	15.15	24.30	-0.04	7.65
7.422	13.88	23.02	0.03	7.73
7.444	20.01	29.15	0.02	7.71
7.467	26.22	35.37	-0.05	7.65
7.490	29.73	38.87	0.06	7.75
7.512	28.03	37.17	-0.04	7.65
7.535	22.46	31.61	0.04	7.73
7.557	20.61	29.75	0.03	7.72
7.580	23.07	32.21	-0.05	7.65
7.603	23.41	32.56	0.06	7.75
7.625	22.89	32.03	-0.04	7.65
7.648	21.38	30.53	0.04	7.73
7.671	19.33	28.47	0.03	7.72
7.693	17.18	26.32	-0.05	7.64
7.716	14.78	23.93	0.06	7.76
7.739	14.69	23.83	-0.04	7.65
7.761	22.11	31.25	-0.04	7.65
7.783	27.52	36.67	0.04	7.73
7.806	29.95	39.10	0.03	7.72
7.829	26.38	35.53	-0.05	7.64
7.851	21.05	30.19	0.06	7.76
7.874	21.21	30.35	-0.03	7.66
7.897	23.23	32.38	0.03	7.72
7.919	23.29	32.43	-0.04	7.65
7.948	22.67	31.82	0.03	7.72
7.971	20.73	29.87	-0.05	7.64
7.994	18.70	27.84	0.06	7.76
8.016	16.29	25.43	-0.04	7.66
8.039	13.85	22.99	0.03	7.73
8.062	17.20	26.34	0.03	7.73
8.084	23.95	33.09	-0.05	7.64
8.107	28.65	37.80	0.07	7.76
8.130	29.54	38.68	-0.03	7.66
8.152	24.63	33.78	0.04	7.73
8.175	20.51	29.66	0.03	7.72
8.197	22.24	31.39	-0.05	7.64
8.220	23.51	32.65	0.06	7.76
8.243	23.28	32.43	-0.03	7.66
8.265	22.75	31.90	0.04	7.73
8.288	21.06	30.21	0.03	7.72
8.311	19.06	28.21	-0.05	7.64
8.333	16.54	25.68	0.06	7.75
8.356	14.53	23.68	-0.04	7.66
8.379	19.22	28.37	0.03	7.72
8.401	25.45	34.59	0.04	7.73
8.424	29.70	38.85	-0.05	7.64
8.446	29.64	38.79	0.06	7.75
8.469	24.21	33.35	-0.03	7.66
8.492	20.94	30.09	0.03	7.72
8.514	23.20	32.34	0.04	7.73
8.537	23.98	33.12	-0.05	7.64
8.560	23.73	32.88	0.06	7.75
8.582	22.46	31.60	-0.03	7.66
8.605	20.52	29.66	0.03	7.72
8.628	18.38	27.52	0.04	7.73
8.651	15.89	25.03	-0.04	7.65
8.673	14.58	23.72	0.06	7.76
8.695	20.53	29.67	-0.04	7.66
8.718	26.52	35.66	0.03	7.72
8.741	30.12	39.27	0.04	7.73
8.763	28.76	37.90	-0.05	7.64
8.786	23.28	32.43	0.06	7.75
8.809	21.17	30.31	-0.03	7.66
8.831	23.55	32.69	0.03	7.72
8.854	23.87	33.02	-0.05	7.64
8.880	23.46	32.60	0.04	7.73
8.903	21.73	30.87	-0.05	7.64
8.925	19.84	28.98	0.06	7.75
8.948	17.55	26.69	-0.03	7.66
8.970	15.25	24.39	0.02	7.72
8.993	15.63	24.77	0.05	7.74
9.016	22.32	31.46	-0.05	7.64
9.038	27.99	37.14	0.04	7.74
9.068	30.41	39.55	0.06	7.75
9.090	26.43	35.57	-0.03	7.66
9.113	21.47	30.62	0.02	7.71
9.136	21.92	31.06	0.05	7.74
9.158	23.73	32.87	-0.06	7.64
9.181	23.80	32.95	0.06	7.75
9.203	23.12	32.26	-0.03	7.66
9.226	21.38	30.53	0.01	7.71
9.249	19.43	28.58	0.04	7.74
9.271	17.17	26.31	-0.06	7.64
9.294	14.83	23.98	0.06	7.75
9.317	17.84	26.98	-0.03	7.66
9.339	24.39	33.53	0.01	7.70
9.362	29.13	38.27	0.05	7.74
9.385	30.24	39.39	-0.05	7.64
9.407	25.26	34.40	0.05	7.74
9.430	21.05	30.19	-0.03	7.66
9.453	22.47	31.61	0.01	7.70
9.475	23.89	33.04	0.05	7.74
9.498	23.63	32.77	-0.05	7.64
9.520	22.83	31.97	0.05	7.75
9.543	20.93	30.08	-0.03	7.66
9.566	18.78	27.92	0.00	7.70
9.588	16.28	25.43	0.05	7.75
9.611	14.25	23.39	-0.05	7.64
9.634	18.75	27.89	0.05	7.74
9.656	25.05	34.19	-0.03	7.66
9.679	29.62	38.76	0.00	7.70
9.702	29.64	38.79	0.06	7.75
9.724	24.27	33.41	-0.05	7.64
9.747	20.92	30.06	0.05	7.74
9.770	22.99	32.14	-0.03	7.66
9.792	23.95	33.09	0.00	7.69
9.815	23.66	32.80	0.06	7.75
9.837	22.48	31.62	-0.05	7.64
9.860	20.44	29.58	0.05	7.74
9.883	18.17	27.31	-0.03	7.66
9.905	15.83	24.97	-0.01	7.69
9.928	14.44	23.58	0.06	7.75
9.951	20.18	29.32	-0.05	7.64
9.973	28.76	37.91	0.06	7.76
10.003	29.99	39.14	0.05	7.74
10.026	25.08	34.23	-0.03	7.67
10.048	20.90	30.04	-0.01	7.68
10.071	22.70	31.84	0.06	7.75
10.094	23.94	33.09	-0.06	7.64
10.116	23.65	32.79	0.05	7.74
10.139	22.82	31.96	-0.03	7.67
10.162	20.83	29.98	-0.02	7.67
10.184	18.69	27.83	-0.03	7.66
10.213	16.05	25.20	0.06	7.75
10.236	14.40	23.55	-0.05	7.64
10.259	19.90	29.05	0.04	7.73
10.281	26.15	35.30	-0.02	7.67
10.304	29.97	39.11	-0.03	7.67
10.326	29.09	38.23	0.06	7.75
10.349	23.50	32.64	-0.05	7.64
10.372	20.76	29.91	0.04	7.74
10.394	23.26	32.41	-0.02	7.67
10.417	23.88	33.02	-0.03	7.66
10.440	23.42	32.56	0.06	7.76
10.462	22.16	31.30	-0.05	7.64
10.485	20.21	29.35	0.04	7.73
10.508	18.08	27.23	-0.01	7.68
10.530	15.61	24.76	-0.03	7.66
10.553	14.75	23.89	0.06	7.76
10.576	21.09	30.24	-0.05	7.65
10.598	27.01	36.15	0.04	7.73
10.621	30.28	39.42	-0.01	7.68
10.643	28.17	37.31	-0.04	7.65
10.666	22.58	31.72	0.06	7.76
10.689	21.35	30.50	-0.05	7.64
10.711	23.55	32.70	0.04	7.73
10.734	23.89	33.04	-0.00	7.69
10.757	23.51	32.65	-0.04	7.65
10.779	21.93	31.07	0.06	7.75
10.802	19.80	28.94	-0.05	7.64
10.825	17.57	26.71	0.04	7.73
10.847	15.16	24.30	0.00	7.69
10.870	15.57	24.71	-0.05	7.65
10.892	22.32	31.46	0.06	7.75
10.915	27.86	37.00	-0.04	7.65
10.938	30.36	39.50	0.04	7.73
10.960	27.15	36.29	0.00	7.70
10.983	21.85	30.99	-0.05	7.64
11.006	21.82	30.96	0.07	7.76
11.028	23.86	33.00	-0.04	7.65
11.051	23.88	33.03	0.04	7.73
11.073	23.23	32.37	0.01	7.70
11.096	21.39	30.54	-0.00	7.69
11.117	19.40	28.54	0.06	7.75
11.140	17.14	26.28	-0.04	7.65
11.162	14.81	23.95	0.04	7.73
11.185	16.87	26.01	0.02	7.71
11.208	23.47	32.61	-0.05	7.64
11.230	28.58	37.72	0.06	7.76
11.253	30.38	39.52	-0.04	7.65
11.275	26.05	35.20	0.04	7.73
11.298	21.06	30.20	-0.03	7.66
11.322	22.95	32.10	0.03	7.73
11.344	23.89	33.03	0.03	7.72
11.367	23.69	32.83	-0.05	7.64
11.390	22.77	31.92	0.06	7.76
11.412	20.79	29.93	-0.04	7.66
11.435	18.72	27.86	0.03	7.72
11.457	16.22	25.36	0.03	7.72
11.480	14.55	23.69	-0.05	7.65
11.503	19.88	29.03	0.06	7.75
11.525	26.06	35.20	-0.03	7.66
11.548	29.94	39.09	0.03	7.73
11.571	29.17	38.32	0.04	7.73
11.593	23.71	32.86	-0.05	7.64
11.616	21.17	30.32	0.06	7.75
11.639	23.41	32.55	-0.03	7.66
11.664	23.96	33.10	0.05	7.74
11.684	23.52	32.67	0.04	7.73
11.706	22.37	31.52	-0.05	7.64
11.729	20.45	29.59	0.06	7.75
11.752	18.21	27.35	-0.03	7.66
11.774	15.73	24.87	0.02	7.72
11.797	14.68	23.83	0.05	7.74
11.820	21.02	30.17	-0.06	7.63
11.842	26.95	36.10	0.06	7.75
11.865	30.31	39.45	-0.03	7.67
11.888	28.39	37.54	0.02	7.71
11.910	22.92	32.06	0.05	7.74
11.933	21.29	30.44	-0.06	7.64
11.955	23.62	32.77	0.06	7.75
11.978	24.03	33.17	-0.03	7.66
12.001	23.50	32.64	0.01	7.71
12.023	21.98	31.13	0.05	7.74
12.046	19.94	29.08	-0.05	7.64
12.069	17.70	26.84	0.06	7.75
12.091	15.23	24.38	-0.03	7.66
12.114	15.49	24.63	0.01	7.70
12.137	22.23	31.38	0.05	7.75
12.159	27.74	36.89	-0.05	7.64
12.182	30.44	39.59	0.07	7.76
12.203	27.48	36.62	-0.03	7.66
12.226	22.11	31.25	0.01	7.70
12.248	21.73	30.87	0.06	7.75
12.271	23.78	32.93	-0.06	7.64
12.293	23.75	32.90	0.05	7.74
12.316	23.17	32.31	-0.03	7.66
12.339	21.52	30.67	0.00	7.69
12.361	19.59	28.73	0.06	7.75
12.384	17.26	26.40	-0.06	7.63
12.407	14.89	24.04	0.05	7.74
12.429	16.69	25.83	-0.03	7.67
12.452	23.75	32.89	0.07	7.76
12.479	29.15	38.29	-0.01	7.68
12.501	30.47	39.61	0.06	7.75
12.524	25.75	34.90	-0.05	7.64
12.547	21.28	30.42	0.05	7.74
12.569	22.56	31.70	-0.03	7.67
12.592	23.96	33.10	-0.01	7.68
12.616	23.77	32.91	0.04	7.73
12.637	22.98	32.12	-0.05	7.64
12.660	21.09	30.23	0.05	7.74
12.683	19.09	28.24	-0.03	7.67
12.705	16.60	25.75	-0.02	7.68
12.728	14.51	23.65	0.06	7.75
12.750	18.84	27.98	-0.05	7.64
12.773	25.24	34.38	0.04	7.74
12.796	29.72	38.86	-0.02	7.67
12.818	29.89	39.03	-0.02	7.67
12.841	24.57	33.72	0.06	7.75
12.864	21.05	30.19	-0.05	7.64
12.886	23.02	32.16	0.05	7.74
12.909	24.00	33.15	-0.02	7.67
12.932	23.69	32.84	-0.02	7.67
12.954	22.83	31.98	0.06	7.75
12.977	20.69	29.83	-0.05	7.64
12.999	18.59	27.73	0.04	7.73
13.022	16.17	25.32	-0.02	7.67
13.045	14.45	23.59	-0.04	7.66
13.067	19.90	29.04	0.06	7.75
13.090	26.12	35.26	-0.05	7.64
13.113	30.04	39.18	0.04	7.73
13.135	29.12	38.26	-0.02	7.67
13.158	23.56	32.71	-0.04	7.66
13.181	21.13	30.27	0.07	7.76
13.203	23.60	32.75	-0.05	7.64
13.226	24.15	33.29	0.04	7.73
13.259	23.48	32.63	0.06	7.75
13.279	22.09	31.24	-0.01	7.68
13.301	19.95	29.09	-0.04	7.65
13.324	17.73	26.87	0.07	7.76
13.347	15.40	24.54	-0.05	7.64
13.369	15.45	24.59	0.04	7.73
13.392	22.03	31.18	-0.00	7.69
13.415	27.64	36.78	-0.04	7.65
13.437	30.58	39.72	0.06	7.76
13.460	27.82	36.96	-0.05	7.64
13.482	22.29	31.43	0.04	7.73
13.505	21.74	30.89	0.00	7.70
13.528	23.91	33.05	-0.05	7.64
13.550	23.88	33.03	0.06	7.76
13.573	23.33	32.48	-0.06	7.64
13.603	21.53	30.67	-0.05	7.64
13.626	19.55	28.69	0.04	7.73
13.648	17.21	26.35	0.01	7.70
13.671	14.90	24.05	-0.05	7.64
13.693	17.34	26.48	0.07	7.76
13.716	24.22	33.37	-0.04	7.65
13.739	29.10	38.25	0.04	7.73
13.761	30.46	39.60	0.02	7.71
13.784	25.90	35.04	-0.05	7.64
13.807	21.23	30.37	0.06	7.75
13.829	22.54	31.69	-0.04	7.65
13.852	24.10	33.25	0.03	7.73
13.875	23.83	32.97	0.03	7.72
13.897	23.13	32.27	-0.05	7.64
13.920	21.24	30.38	0.06	7.76
13.942	19.09	28.24	-0.05	7.64
13.972	16.32	25.46	-0.03	7.66
13.994	14.36	23.50	0.03	7.72
14.017	19.25	28.39	0.04	7.73
14.040	25.59	34.74	-0.05	7.64
14.062	29.76	38.90	0.06	7.75
14.085	29.58	38.72	-0.03	7.66
14.108	24.15	33.29	0.03	7.72
14.130	20.93	30.07	0.04	7.73
14.153	23.18	32.32	-0.06	7.64
14.176	23.89	33.03	0.06	7.75
14.198	23.60	32.75	-0.03	7.66
14.221	22.42	31.56	0.02	7.71
14.243	20.41	29.55	0.05	7.74
14.266	18.08	27.22	-0.06	7.63
14.289	15.65	24.80	0.06	7.75
14.311	14.45	23.59	-0.03	7.66
14.334	20.80	29.94	0.07	7.76
14.363	27.04	36.18	0.01	7.71
14.385	30.28	39.43	0.06	7.75
14.408	28.10	37.25	-0.06	7.64
14.431	22.65	31.79	0.05	7.75
14.453	21.23	30.37	-0.03	7.66
14.476	23.57	32.71	0.00	7.70
14.498	23.93	33.08	0.06	7.75
14.521	23.45	32.59	-0.05	7.64
14.544	21.69	30.84	0.05	7.74
14.566	19.86	29.00	-0.03	7.66
14.589	17.56	26.70	-0.00	7.69
14.612	15.23	24.38	0.06	7.75
14.634	15.87	25.01	-0.06	7.64
14.657	22.53	31.68	0.05	7.74
14.680	28.03	37.17	-0.03	7.67
14.702	29.76	38.90	0.02	7.71
14.723	24.43	33.57	-0.06	7.64
14.746	20.90	30.05	0.05	7.74
14.768	22.94	32.09	-0.02	7.67
14.791	23.99	33.14	-0.01	7.68
14.814	23.72	32.86	0.06	7.75
14.836	22.65	31.80	-0.05	7.64
14.859	20.61	29.75	0.04	7.74
14.882	18.59	27.73	-0.02	7.67
14.904	16.05	25.19	-0.02	7.67
14.927	14.55	23.69	0.06	7.75
14.949	20.13	29.28	-0.05	7.64
14.972	26.18	35.33	0.04	7.74
14.995	30.07	39.22	-0.02	7.68
15.017	29.17	38.31	-0.03	7.66
15.040	23.60	32.74	0.06	7.75
15.063	21.10	30.24	-0.05	7.64
15.085	23.48	32.63	0.04	7.73
15.108	23.99	33.13	-0.01	7.68
15.131	23.58	32.73	-0.03	7.66
15.153	22.40	31.54	0.06	7.75
15.176	20.34	29.48	-0.05	7.64
15.198	18.16	27.31	0.04	7.73
15.221	15.68	24.82	-0.01	7.68
15.244	14.94	24.08	-0.04	7.66
15.266	21.56	30.70	-0.01	7.69
15.296	27.75	36.89	0.06	7.76
15.318	30.55	39.70	-0.05	7.65
15.341	27.58	36.73	0.04	7.73
15.364	22.28	31.42	-0.00	7.69
15.386	21.68	30.83	-0.04	7.65
15.409	23.93	33.07	0.06	7.76
15.431	24.02	33.16	-0.04	7.65
15.454	23.47	32.62	0.06	7.75
15.483	21.52	30.66	0.04	7.73
15.505	19.45	28.59	0.00	7.69
15.528	16.98	26.13	-0.05	7.64
15.550	14.72	23.87	0.06	7.75
15.573	17.29	26.43	-0.04	7.65
15.596	23.98	33.13	0.04	7.73
15.618	28.92	38.06	0.01	7.70
15.641	30.54	39.68	-0.05	7.64
15.664	26.05	35.19	0.06	7.76
15.686	21.32	30.46	-0.04	7.65
15.709	22.59	31.74	0.04	7.73
15.732	24.11	33.25	0.01	7.70
15.754	23.85	33.00	-0.05	7.65
15.777	23.21	32.35	0.06	7.75
15.799	21.20	30.34	-0.04	7.65
15.822	19.00	28.15	0.06	7.75
15.852	16.40	25.54	0.04	7.73
15.875	14.49	23.63	0.02	7.71
15.897	19.44	28.59	-0.05	7.65
15.920	25.93	35.07	0.07	7.76
15.943	30.06	39.20	-0.04	7.65
15.965	29.75	38.89	0.04	7.73
15.988	24.22	33.36	0.02	7.71
16.010	21.07	30.22	-0.05	7.64
16.033	23.40	32.54	0.06	7.75
16.056	24.14	33.28	-0.04	7.65
16.078	23.72	32.87	0.04	7.73
16.101	22.73	31.87	0.03	7.72
16.124	20.57	29.71	-0.05	7.64
16.146	18.46	27.60	0.07	7.76
16.169	15.94	25.08	-0.04	7.65
16.192	14.71	23.85	0.04	7.73
16.214	20.65	29.79	0.03	7.72
16.237	26.77	35.91	-0.05	7.64
16.259	30.44	39.58	0.07	7.76
16.282	28.94	38.08	-0.04	7.66
16.305	23.31	32.45	0.03	7.72
16.327	21.32	30.46	0.04	7.73
16.350	23.76	32.91	-0.05	7.64
16.373	24.12	33.26	0.06	7.75
16.395	23.79	32.93	-0.04	7.66
16.418	22.34	31.49	0.03	7.72
16.441	20.33	29.48	0.04	7.73
16.463	18.02	27.16	-0.05	7.64
16.486	15.60	24.74	0.06	7.75
16.508	15.35	24.50	-0.03	7.66
16.531	22.07	31.22	0.03	7.72
16.554	27.75	36.89	0.05	7.74
16.576	30.70	39.84	0.04	7.73
16.605	27.37	36.52	-0.06	7.64
16.628	22.21	31.35	0.06	7.75
16.650	22.15	31.29	-0.03	7.67
16.673	24.08	33.23	0.02	7.72
16.695	24.03	33.17	0.04	7.74
16.718	23.45	32.59	-0.05	7.64
16.741	21.59	30.74	0.06	7.75
16.763	19.67	28.81	-0.03	7.66
16.786	17.28	26.43	0.02	7.71
16.809	14.94	24.08	0.05	7.74
16.831	17.18	26.32	-0.05	7.64
16.857	24.12	33.26	0.05	7.75
16.887	29.48	38.62	0.06	7.75
16.909	30.47	39.61	-0.03	7.66
16.932	25.43	34.57	0.01	7.70
16.954	21.17	30.31	0.05	7.74
16.977	22.81	31.96	-0.01	7.68
17.007	24.12	33.26	-0.05	7.64
17.030	23.73	32.87	0.05	7.74
17.052	22.67	31.82	-0.03	7.66
17.075	20.70	29.84	0.00	7.70
17.097	18.58	27.73	0.05	7.75
17.120	16.08	25.23	-0.05	7.64
17.143	14.49	23.63	0.06	7.75
17.165	19.94	29.08	-0.03	7.66
17.188	26.11	35.26	0.01	7.70
17.211	30.11	39.25	0.06	7.75
17.233	29.34	38.48	-0.05	7.64
17.256	23.78	32.92	0.05	7.75
17.279	21.08	30.22	-0.03	7.67
17.301	23.43	32.57	0.00	7.69
17.324	24.03	33.17	0.05	7.75
17.346	23.61	32.75	-0.05	7.64
17.369	22.57	31.71	0.05	7.74
17.392	20.34	29.49	-0.03	7.66
17.414	18.12	27.26	-0.01	7.68
17.437	15.70	24.84	0.05	7.75
17.460	14.78	23.93	-0.05	7.64
17.482	21.17	30.31	0.05	7.74
17.505	27.18	36.32	-0.03	7.66
17.527	30.59	39.74	-0.01	7.68
17.550	28.46	37.60	0.06	7.75
17.573	22.95	32.09	-0.05	7.64
17.595	21.43	30.57	0.05	7.74
17.618	23.86	33.00	-0.03	7.67
17.641	24.19	33.33	-0.01	7.68
17.663	23.67	32.82	0.06	7.75
17.686	22.08	31.22	0.01	7.70
17.714	19.76	28.90	-0.05	7.64
17.737	17.45	26.60	0.05	7.74
17.760	15.19	24.33	-0.03	7.67
17.782	16.51	25.65	-0.02	7.67
17.805	23.24	32.38	0.06	7.75
17.828	28.57	37.72	-0.05	7.64
17.850	30.72	39.86	0.04	7.73
17.873	26.86	36.00	-0.02	7.67
17.896	21.65	30.79	-0.03	7.67
17.918	22.15	31.30	0.06	7.75
17.941	23.98	33.13	-0.03	7.66
17.970	23.90	33.04	-0.05	7.64
17.993	23.29	32.44	0.04	7.73
18.015	21.29	30.43	-0.02	7.67
18.038	19.21	28.35	-0.03	7.66
18.061	16.89	26.03	0.06	7.75
18.083	14.73	23.87	-0.05	7.64
18.106	18.73	27.87	0.06	7.75
18.136	25.92	35.07	0.04	7.73
18.158	30.14	39.28	-0.02	7.68
18.181	30.00	39.15	-0.03	7.66
18.204	24.58	33.73	0.06	7.76
18.226	21.22	30.36	-0.05	7.64
18.249	23.59	32.74	0.04	7.73
18.272	24.38	33.53	-0.01	7.68
18.294	23.92	33.07	-0.03	7.66
18.317	23.08	32.22	0.07	7.76
18.340	21.04	30.19	-0.05	7.64
18.362	18.99	28.13	0.04	7.73
18.385	16.43	25.58	-0.01	7.69
18.407	15.02	24.16	-0.04	7.65
18.430	20.94	30.08	0.06	7.75
18.453	27.12	36.26	-0.04	7.65
18.475	30.83	39.97	0.04	7.74
18.498	29.63	38.77	-0.00	7.69
18.521	23.91	33.05	-0.04	7.65
18.543	21.79	30.93	0.06	7.75
18.566	24.28	33.42	-0.04	7.65
18.589	24.44	33.58	0.04	7.73
18.611	23.93	33.07	0.00	7.69
18.634	22.77	31.92	-0.05	7.65
18.656	20.62	29.76	0.06	7.76
18.679	18.47	27.62	-0.04	7.65
18.702	15.91	25.05	0.04	7.73
18.724	15.67	24.81	0.00	7.70
18.747	22.28	31.42	-0.04	7.65
18.770	27.99	37.13	0.06	7.76
18.792	31.12	40.27	-0.05	7.65
18.815	28.38	37.53	0.06	7.75
18.843	22.65	31.79	0.04	7.73
18.866	22.33	31.48	0.01	7.70
18.889	24.38	33.52	-0.05	7.65
18.911	24.27	33.41	0.06	7.76
18.934	23.68	32.82	-0.04	7.65
18.957	22.40	31.54	0.04	7.73
18.979	20.15	29.30	0.01	7.70
19.002	17.84	26.98	-0.05	7.64
19.024	15.38	24.52	0.06	7.75
19.047	17.44	26.59	-0.04	7.65
19.070	24.10	33.25	0.04	7.73
19.092	29.53	38.68	0.02	7.71
19.115	31.23	40.37	-0.05	7.64
19.138	26.96	36.10	0.06	7.75
19.160	22.13	31.27	-0.04	7.65
19.183	23.03	32.17	0.04	7.73
19.205	24.74	33.88	0.02	7.71
19.228	24.40	33.55	-0.05	7.64
19.251	23.52	32.66	-0.03	7.66
19.277	21.78	30.93	0.06	7.76
19.300	19.60	28.74	-0.04	7.65
19.322	17.23	26.37	0.03	7.73
19.345	15.15	24.30	0.03	7.72
19.368	19.68	28.82	-0.05	7.65
19.390	26.15	35.30	0.06	7.76
19.413	30.58	39.72	-0.03	7.66
19.436	30.72	39.86	0.03	7.72
19.458	25.27	34.41	0.03	7.72
19.481	21.76	30.91	-0.05	7.64
19.504	23.95	33.09	0.06	7.75
19.526	24.80	33.94	-0.04	7.65
19.549	24.26	33.40	0.03	7.72
19.571	23.52	32.66	0.03	7.72
19.594	21.38	30.52	-0.05	7.64
19.617	19.18	28.33	0.06	7.76
19.639	16.55	25.70	-0.04	7.65
19.662	15.14	24.29	0.03	7.72
19.685	20.95	30.10	0.04	7.73
19.707	27.27	36.41	-0.05	7.64
19.730	31.01	40.15	0.06	7.76
19.753	30.01	39.15	-0.03	7.66
19.775	24.30	33.44	0.03	7.72
19.798	21.86	31.00	0.04	7.73
19.820	24.32	33.46	-0.05	7.64
19.843	24.63	33.77	0.06	7.75
19.866	24.01	33.15	-0.03	7.66
19.888	23.13	32.27	0.03	7.72
19.911	20.87	30.01	-0.04	7.65
19.940	18.48	27.63	0.04	7.74
19.962	15.95	25.10	-0.06	7.64
19.985	16.15	25.29	0.06	7.75
20.007	22.84	31.99	-0.03	7.66
20.030	28.54	37.68	0.02	7.72
20.053	31.48	40.62	0.05	7.74
20.075	28.33	37.48	-0.05	7.64
20.098	22.90	32.05	0.06	7.75
20.121	22.39	31.53	-0.03	7.66
20.143	24.64	33.78	0.02	7.71
20.166	24.62	33.76	0.05	7.74
20.188	23.86	33.01	-0.05	7.64
20.211	22.61	31.75	0.06	7.75
20.234	20.31	29.46	-0.02	7.67
20.256	18.06	27.20	0.01	7.70
20.279	15.62	24.76	0.05	7.75
20.302	17.42	26.57	-0.06	7.64
20.324	24.28	33.42	0.05	7.75
20.347	29.42	38.56	-0.03	7.66
20.369	31.33	40.47	0.01	7.70
20.392	24.64	33.78	-0.06	7.64
20.414	21.82	30.97	0.05	7.75
20.437	24.26	33.40	-0.03	7.66
20.460	24.72	33.87	0.00	7.69
20.482	24.06	33.21	0.06	7.75
20.505	23.34	32.48	-0.05	7.64
20.527	21.18	30.32	0.05	7.74
20.550	19.05	28.20	-0.03	7.66
20.573	16.47	25.61	-0.00	7.69
20.595	15.59	24.73	-0.03	7.67
20.625	22.52	31.66	0.06	7.75
20.647	28.33	37.47	-0.05	7.64
20.670	31.40	40.54	0.05	7.74
20.693	28.81	37.95	-0.03	7.66
20.715	23.31	32.45	-0.01	7.68
20.738	22.45	31.59	0.06	7.75
20.761	24.80	33.94	-0.05	7.64
20.783	24.59	33.73	0.05	7.74
20.806	23.90	33.04	-0.03	7.67
20.828	22.77	31.91	-0.02	7.68
20.851	20.42	29.57	0.06	7.75
20.874	18.28	27.43	-0.05	7.64
20.896	15.83	24.97	0.05	7.74
20.919	16.92	26.06	-0.02	7.67
20.942	23.69	32.83	-0.02	7.67
20.964	29.17	38.31	0.06	7.75
20.987	31.66	40.80	-0.05	7.64
21.010	27.39	36.53	0.06	7.75
21.038	22.09	31.24	0.04	7.74
21.061	23.08	32.22	-0.02	7.67
21.083	24.65	33.80	-0.03	7.66
21.106	24.39	33.53	0.06	7.75
21.129	23.74	32.89	-0.06	7.64
21.151	22.04	31.18	0.04	7.73
21.174	19.75	28.90	-0.02	7.67
21.197	17.42	26.56	-0.03	7.66
21.219	15.17	24.31	0.06	7.75
21.242	18.90	28.04	-0.05	7.64
21.265	25.55	34.70	0.04	7.73
21.287	30.26	39.41	-0.01	7.68
21.310	31.03	40.18	-0.04	7.66
21.332	25.78	34.92	0.07	7.76
21.355	21.84	30.98	-0.05	7.64
21.378	23.68	32.83	0.04	7.73
21.400	24.69	33.83	-0.01	7.68
21.423	24.18	33.33	-0.04	7.66
21.446	23.49	32.63	0.07	7.76
21.468	21.63	30.78	-0.05	7.64
21.491	19.44	28.58	0.04	7.73
21.514	16.88	26.02	-0.04	7.65
21.543	15.14	24.29	-0.01	7.69
21.566	20.93	30.07	-0.04	7.65
21.589	27.24	36.39	0.07	7.76
21.611	31.05	40.20	-0.04	7.65
21.634	29.96	39.10	0.04	7.73
21.657	24.27	33.42	0.00	7.69
21.679	21.86	31.01	-0.04	7.65
21.702	24.46	33.60	0.06	7.76
21.724	24.72	33.87	-0.05	7.65
21.747	24.18	33.32	0.04	7.73
21.770	23.10	32.25	0.01	7.70
21.792	20.91	30.05	-0.05	7.64
21.815	18.72	27.86	0.07	7.76
21.838	16.29	25.43	-0.05	7.65
21.860	15.76	24.90	0.04	7.73
21.883	22.31	31.45	0.01	7.70
21.906	28.19	37.34	-0.05	7.64
21.928	31.41	40.55	0.02	7.71
21.958	28.46	37.60	0.06	7.75
21.980	22.95	32.10	-0.04	7.65
22.003	22.46	31.60	0.03	7.73
22.026	24.65	33.80	0.02	7.71
22.048	24.43	33.57	-0.05	7.64
22.071	23.95	33.10	0.06	7.76
22.093	22.58	31.72	-0.04	7.65
22.116	20.35	29.49	0.03	7.73
22.139	17.55	26.69	-0.03	7.66
22.162	15.26	24.40	0.03	7.73
22.184	18.93	28.07	0.03	7.73
22.207	25.68	34.83	-0.05	7.64
22.229	30.36	39.50	0.06	7.76
22.252	31.00	40.15	-0.04	7.65
22.275	25.75	34.90	0.03	7.72
22.297	21.83	30.98	0.04	7.73
22.320	23.77	32.91	-0.05	7.64
22.343	24.77	33.91	0.06	7.76
22.365	24.23	33.37	-0.04	7.66
22.388	23.45	32.60	0.03	7.72
22.410	21.65	30.79	0.04	7.73
22.433	19.42	28.56	-0.05	7.64
22.456	17.00	26.15	0.06	7.75
22.478	15.15	24.29	-0.03	7.66
22.501	20.28	29.43	0.03	7.72
22.524	26.67	35.81	0.05	7.74
22.546	30.83	39.98	-0.06	7.63
22.569	30.43	39.57	0.06	7.75
22.592	24.81	33.95	-0.03	7.66
22.614	21.85	30.99	0.01	7.71
22.637	24.19	33.33	0.05	7.75
22.659	24.66	33.81	-0.01	7.68
22.689	24.05	33.20	-0.05	7.64
22.712	23.14	32.28	0.06	7.75
22.735	20.85	29.99	-0.03	7.66
22.757	18.59	27.74	0.00	7.70
22.780	16.09	25.23	0.06	7.75
22.803	15.76	24.90	-0.05	7.64
22.825	22.29	31.43	0.06	7.75
22.848	28.09	37.24	-0.03	7.67
22.870	31.30	40.44	0.00	7.69
22.893	29.00	38.14	0.06	7.75
22.916	23.43	32.57	-0.05	7.64
22.938	22.28	31.42	0.05	7.74
22.961	24.61	33.75	-0.03	7.67
22.984	24.67	33.81	-0.01	7.69
23.006	23.99	33.14	0.06	7.75
23.029	22.75	31.89	-0.05	7.64
23.051	20.41	29.55	0.04	7.74
23.074	18.21	27.36	-0.03	7.66
23.097	15.74	24.88	-0.02	7.67
23.119	16.66	25.81	0.06	7.75
23.142	23.41	32.55	-0.05	7.64
23.165	29.03	38.17	0.04	7.74
23.187	31.30	40.45	-0.02	7.67
23.210	27.79	36.93	-0.03	7.66
23.232	22.56	31.70	0.06	7.75
23.255	23.27	32.41	-0.05	7.64
23.281	24.78	33.93	0.07	7.76
23.304	24.30	33.44	-0.05	7.64
23.327	23.58	32.73	0.04	7.73
23.349	21.70	30.84	-0.02	7.68
23.372	19.58	28.72	-0.04	7.65
23.394	17.03	26.17	0.06	7.76
23.417	14.93	24.07	-0.05	7.64
23.440	19.30	28.44	0.04	7.73
23.462	25.87	35.02	-0.00	7.69
23.485	30.34	39.49	-0.04	7.65
23.508	30.69	39.83	0.06	7.76
23.530	25.17	34.32	-0.04	7.65
23.553	21.54	30.68	0.04	7.73
23.575	23.70	32.85	0.00	7.70
23.598	24.57	33.71	-0.05	7.64
23.621	24.16	33.30	0.06	7.76
23.643	23.35	32.50	-0.05	7.64
23.666	21.40	30.55	0.04	7.73
23.689	19.12	28.26	0.01	7.70
23.711	16.70	25.84	-0.05	7.64
23.734	15.15	24.30	0.06	7.75
23.756	20.77	29.92	-0.03	7.66
23.779	27.08	36.22	0.06	7.75
23.809	30.96	40.10	0.04	7.73
23.832	29.36	38.50	0.03	7.72
23.854	23.68	32.82	-0.05	7.64
23.877	21.82	30.96	0.07	7.76
23.899	24.25	33.40	-0.04	7.66
23.922	24.47	33.61	0.03	7.72
23.945	23.88	33.02	0.04	7.73
23.967	22.74	31.88	-0.05	7.64
23.990	20.60	29.75	0.06	7.75
24.013	18.39	27.53	-0.03	7.66
24.035	15.86	25.01	0.03	7.72
24.058	15.89	25.03	0.04	7.74
24.080	22.63	31.77	-0.05	7.64
24.103	28.35	37.50	0.06	7.75
24.126	31.26	40.40	-0.03	7.66
24.148	28.34	37.49	0.01	7.71
24.171	22.85	32.00	0.05	7.75
24.194	22.15	31.29	-0.05	7.64
24.216	24.45	33.59	0.06	7.75
24.239	24.43	33.57	-0.03	7.66
24.261	23.84	32.99	0.00	7.69
24.284	22.43	31.58	0.05	7.74
24.307	20.22	29.36	-0.05	7.64
24.329	17.88	27.03	0.05	7.74
24.352	15.52	24.66	-0.03	7.67
24.375	17.29	26.43	0.06	7.75
24.403	24.59	33.74	-0.01	7.68
24.426	29.60	38.74	0.06	7.75
24.448	30.95	40.09	-0.05	7.64
24.471	26.55	35.69	0.05	7.74
24.494	21.82	30.96	-0.02	7.67
24.516	23.10	32.25	-0.02	7.67
24.539	24.55	33.69	0.06	7.75
24.562	24.17	33.32	-0.05	7.64
24.584	23.44	32.58	0.06	7.75
24.614	21.33	30.47	0.04	7.73
24.636	19.20	28.34	-0.02	7.68
24.659	16.66	25.81	-0.04	7.66
24.681	14.90	24.04	0.06	7.76
24.704	19.76	28.91	-0.05	7.64
24.727	26.19	35.33	0.04	7.74
24.749	30.54	39.68	-0.01	7.69
24.772	30.31	39.46	-0.04	7.65
24.795	24.75	33.90	0.06	7.76
24.817	21.65	30.80	-0.04	7.65
24.840	24.05	33.20	0.04	7.73
24.862	24.52	33.67	0.00	7.70
24.885	24.04	33.19	-0.05	7.65
24.908	23.03	32.18	0.03	7.72
24.937	20.69	29.84	0.07	7.76
24.960	18.56	27.70	-0.05	7.65
24.983	15.98	25.12	0.04	7.73
25.005	15.45	24.60	0.02	7.72
25.028	21.84	30.98	-0.05	7.64
25.051	27.74	36.88	0.06	7.76
25.073	31.15	40.29	-0.04	7.65
25.096	29.02	38.17	0.04	7.73
25.118	23.36	32.51	0.03	7.72
25.141	21.95	31.09	-0.05	7.64
25.164	24.32	33.47	0.06	7.75
25.186	24.47	33.61	-0.03	7.66
25.209	23.88	33.02	0.03	7.72
25.232	22.59	31.73	0.04	7.73
25.254	20.38	29.53	-0.05	7.64
25.277	18.11	27.25	0.06	7.75
25.299	15.68	24.83	-0.04	7.66
25.322	16.34	25.49	0.03	7.72
25.345	23.18	32.33	0.05	7.74
25.367	28.65	37.79	-0.05	7.64
25.390	31.20	40.34	0.06	7.75
25.413	27.76	36.91	-0.04	7.65
25.435	22.57	31.71	0.01	7.71
25.458	22.49	31.63	0.05	7.75
25.480	24.54	33.68	0.06	7.76
25.501	24.06	33.21	-0.03	7.66
25.524	23.29	32.44	0.00	7.69
25.546	21.22	30.36	0.06	7.75
25.569	18.92	28.06	-0.05	7.64
25.592	16.40	25.54	0.05	7.74
25.614	14.92	24.07	-0.03	7.66
25.637	20.52	29.67	-0.01	7.69
25.660	26.71	35.85	0.06	7.75
25.682	30.59	39.73	-0.05	7.64
25.705	29.61	38.75	0.05	7.74
25.727	24.04	33.19	-0.03	7.66
25.750	21.55	30.69	-0.02	7.68
25.773	24.01	33.15	0.06	7.75
25.795	24.44	33.58	-0.05	7.64
25.818	23.89	33.04	0.05	7.74
25.841	22.71	31.85	-0.02	7.67
25.863	20.52	29.66	-0.03	7.67
25.886	18.30	27.45	0.06	7.75
25.909	15.88	25.03	-0.03	7.66
25.938	15.79	24.93	-0.05	7.64
25.960	22.47	31.62	0.04	7.74
25.983	28.05	37.20	-0.02	7.68
26.013	30.92	40.07	-0.03	7.66
26.035	26.76	35.90	0.04	7.73
26.059	21.77	30.91	-0.04	7.66
26.081	22.72	31.87	0.07	7.76
26.104	24.32	33.46	-0.04	7.65
26.126	24.08	33.23	0.04	7.73
26.149	23.56	32.71	-0.01	7.69
26.172	21.59	30.73	-0.04	7.65
26.194	19.45	28.59	0.07	7.76
26.217	17.05	26.19	-0.05	7.64
26.240	14.92	24.06	0.04	7.73
26.262	18.37	27.52	0.00	7.70
26.285	25.16	34.30	-0.05	7.65
26.307	29.84	38.98	0.07	7.76
26.330	30.77	39.91	-0.04	7.65
26.353	25.53	34.68	0.04	7.73
26.375	21.34	30.48	0.01	7.70
26.398	23.28	32.43	-0.05	7.65
26.421	24.43	33.57	0.07	7.76
26.443	24.02	33.17	-0.04	7.65
26.466	23.33	32.47	0.04	7.73
26.488	21.19	30.33	0.02	7.71
26.511	19.00	28.15	0.04	7.73
26.540	16.35	25.49	-0.05	7.64
26.562	14.91	24.05	0.06	7.76
26.585	20.55	29.69	-0.04	7.65
26.608	26.81	35.95	0.03	7.73
26.630	30.46	39.61	0.03	7.72
26.653	29.58	38.72	-0.05	7.64
26.676	23.92	33.07	0.06	7.75
26.698	21.38	30.53	-0.03	7.66
26.721	23.85	33.00	0.04	7.73
26.743	24.30	33.44	0.04	7.73
26.766	23.93	33.08	-0.05	7.64
26.789	22.80	31.94	0.06	7.75
26.811	20.58	29.72	-0.03	7.66
26.834	18.28	27.42	0.03	7.72
26.857	15.78	24.92	0.04	7.73
26.879	15.24	24.38	-0.05	7.64
26.902	21.73	30.87	0.06	7.75
26.924	27.53	36.68	-0.03	7.66
26.947	30.83	39.97	0.02	7.71
26.970	28.66	37.80	0.05	7.74
26.992	23.11	32.26	-0.06	7.64
27.015	21.84	30.98	0.06	7.75
27.038	24.09	33.23	-0.03	7.66
27.060	24.19	33.33	0.01	7.70
27.083	23.67	32.82	0.05	7.75
27.105	22.14	31.29	-0.06	7.64
27.128	19.99	29.13	0.05	7.74
27.151	17.69	26.83	-0.03	7.66
27.173	15.43	24.57	0.00	7.69
27.196	16.58	25.72	-0.05	7.64
27.222	23.59	32.73	0.06	7.75
27.244	29.10	38.24	-0.01	7.69
27.274	30.87	40.01	-0.05	7.64
27.296	26.25	35.40	0.05	7.74
27.319	21.53	30.67	-0.03	7.66
27.341	22.85	31.99	-0.01	7.68
27.364	24.46	33.60	0.06	7.75
27.387	24.21	33.35	-0.06	7.64
27.409	23.56	32.70	0.05	7.74
27.432	21.58	30.73	-0.03	7.67
27.455	19.37	28.51	-0.02	7.67
27.477	16.92	26.06	0.06	7.75
27.500	14.86	24.01	-0.06	7.64
27.523	18.94	28.08	0.05	7.74
27.545	25.41	34.55	-0.02	7.67
27.568	30.00	39.14	-0.03	7.66
27.590	30.41	39.56	0.06	7.76
27.621	24.71	33.85	0.05	7.74
27.646	21.34	30.49	-0.05	7.64
27.668	23.67	32.82	0.04	7.73
27.691	24.28	33.43	-0.02	7.68
27.714	23.97	33.11	-0.04	7.66
27.736	23.12	32.26	0.06	7.76
27.759	20.82	29.96	-0.05	7.64
27.781	18.60	27.74	0.03	7.73
27.804	16.16	25.30	-0.00	7.69
27.827	15.10	24.24	-0.04	7.65
27.849	21.07	30.22	0.06	7.76
27.872	27.22	36.37	-0.04	7.65
27.895	30.85	39.99	0.04	7.73
27.917	29.33	38.47	0.00	7.70
27.940	23.69	32.84	-0.05	7.65
27.962	21.67	30.81	0.07	7.76
27.985	24.11	33.25	-0.05	7.64
28.007	24.35	33.50	0.04	7.73
28.030	23.92	33.07	0.01	7.71
28.052	22.64	31.78	-0.05	7.64
28.075	20.36	29.50	0.06	7.76
28.097	18.08	27.23	-0.04	7.65
28.120	15.72	24.86	0.03	7.72
28.143	15.67	24.82	0.02	7.71
28.165	22.36	31.50	-0.05	7.64
28.188	28.02	37.17	0.06	7.75
28.211	31.18	40.32	-0.04	7.65
28.233	28.47	37.62	0.03	7.72
28.256	22.82	31.97	0.03	7.72
28.278	21.93	31.07	-0.05	7.64
28.301	24.20	33.35	0.06	7.75
28.324	24.15	33.29	-0.06	7.64
28.354	23.76	32.90	-0.03	7.66
28.376	21.97	31.11	0.03	7.72
28.399	19.84	28.98	0.05	7.74
28.421	17.51	26.65	-0.06	7.63
28.444	15.19	24.33	0.06	7.75
28.467	17.53	26.67	-0.03	7.66
28.489	24.33	33.47	0.02	7.71
28.512	29.34	38.48	0.05	7.75
28.535	30.96	40.10	-0.05	7.64
28.557	26.48	35.62	0.06	7.75
28.580	21.61	30.76	-0.05	7.64
28.609	23.19	32.33	-0.03	7.66
28.632	24.43	33.58	0.00	7.69
28.654	24.10	33.24	0.06	7.75
28.677	23.41	32.56	-0.05	7.64
28.700	21.42	30.57	0.05	7.74
28.722	19.17	28.31	-0.03	7.67
28.745	16.55	25.69	0.06	7.75
28.774	14.89	24.04	-0.01	7.68
28.796	20.36	29.50	0.06	7.75
28.819	26.53	35.67	-0.05	7.64
28.841	30.42	39.57	0.05	7.74
28.864	29.72	38.86	-0.02	7.67
28.887	24.13	33.28	-0.02	7.67
28.909	21.49	30.63	0.06	7.76
28.932	23.89	33.03	-0.05	7.64
28.955	24.49	33.63	0.04	7.73
28.977	24.08	33.22	-0.01	7.68
29.000	22.94	32.09	-0.03	7.66
29.023	20.72	29.87	0.07	7.76
29.045	18.39	27.54	-0.05	7.64
29.068	15.94	25.08	0.04	7.73
29.090	15.27	24.42	-0.01	7.68
29.113	21.64	30.78	-0.04	7.65
29.136	27.50	36.65	0.07	7.76
29.158	30.89	40.04	-0.04	7.65
29.181	28.97	38.11	0.04	7.73
29.204	23.29	32.44	0.00	7.69
29.226	21.72	30.86	-0.04	7.65
29.249	24.07	33.22	0.07	7.76
29.271	24.31	33.46	-0.05	7.65
29.294	23.82	32.97	0.04	7.73
29.317	22.36	31.51	0.02	7.71
29.339	20.23	29.37	-0.05	7.64
29.362	17.95	27.09	0.06	7.75
29.385	15.57	24.72	-0.04	7.65
29.407	16.14	25.29	0.04	7.73
29.430	22.82	31.96	0.03	7.72
29.453	28.50	37.64	-0.05	7.64
29.475	30.98	40.12	0.05	7.74
29.505	27.13	36.27	0.06	7.76
29.528	21.97	31.11	-0.03	7.66
29.550	22.47	31.61	0.03	7.72
29.573	24.37	33.52	0.04	7.74
29.596	24.29	33.43	-0.06	7.64
29.618	23.55	32.70	0.06	7.75
29.641	21.71	30.85	-0.03	7.66
29.663	19.56	28.70	0.02	7.71
29.686	17.17	26.31	0.05	7.74
29.709	14.94	24.09	-0.05	7.64
29.731	17.94	27.08	0.06	7.75
29.754	24.58	33.73	-0.03	7.66
29.777	29.49	38.63	0.01	7.70
29.799	30.69	39.84	0.06	7.75
29.822	25.89	35.03	-0.06	7.64
29.844	21.34	30.48	0.05	7.74
29.867	23.10	32.24	-0.05	7.64
29.896	24.38	33.53	-0.03	7.66
29.918	23.89	33.04	0.02	7.71
29.940	23.25	32.40	0.06	7.75
29.963	21.03	30.17	-0.05	7.64
29.985	18.87	28.01	0.04	7.74
30.008	16.42	25.56	-0.02	7.67
30.031	14.83	23.98	-0.02	7.67
30.053	20.04	29.19	0.06	7.75
30.076	26.41	35.56	-0.05	7.64
30.098	30.52	39.66	0.05	7.74
30.121	30.00	39.15	-0.02	7.67
30.144	24.37	33.51	-0.04	7.66
30.166	21.44	30.58	0.06	7.76
30.189	23.77	32.91	-0.05	7.64
30.212	24.40	33.55	0.04	7.73
30.234	23.96	33.10	-0.01	7.68
30.257	22.85	31.99	-0.04	7.65
30.280	20.66	29.80	0.06	7.75
30.302	18.56	27.70	-0.05	7.64
30.325	16.09	25.24	0.04	7.73
30.347	15.25	24.40	0.00	7.69
30.370	21.42	30.57	-0.05	7.64
30.393	27.40	36.54	0.06	7.76
30.415	30.95	40.09	-0.04	7.65
30.438	29.12	38.26	0.04	7.73
30.461	23.51	32.66	0.01	7.70
30.483	21.70	30.85	-0.05	7.64
30.506	24.08	33.22	0.07	7.76
30.528	24.45	33.59	-0.05	7.65
30.551	24.03	33.17	0.03	7.73
30.574	22.62	31.77	0.02	7.72
30.596	19.23	28.37	-0.05	7.64
30.620	16.75	25.90	0.06	7.76
30.643	14.92	24.06	-0.04	7.65
30.665	19.62	28.76	0.03	7.72
30.688	26.05	35.20	0.04	7.73
30.711	30.36	39.50	-0.06	7.64
30.733	30.33	39.48	0.06	7.75
30.756	24.81	33.95	-0.03	7.66
30.778	21.43	30.58	0.02	7.72
30.801	23.75	32.89	0.05	7.74
30.824	24.39	33.54	-0.06	7.64
30.846	23.98	33.12	0.06	7.75
30.869	23.14	32.29	-0.03	7.66
30.892	20.98	30.12	0.01	7.70
30.914	18.75	27.89	0.05	7.74
30.937	16.27	25.41	-0.05	7.64
30.960	15.19	24.34	0.04	7.73
30.988	21.78	30.93	0.05	7.75
31.011	27.65	36.80	-0.03	7.67
31.033	30.86	40.00	0.00	7.69
31.056	28.87	38.01	0.06	7.75
31.079	23.24	32.38	-0.06	7.63
31.101	21.83	30.98	0.05	7.74
31.124	24.25	33.39	-0.03	7.66
31.146	24.41	33.55	-0.01	7.68
31.169	23.82	32.97	0.06	7.75
31.192	22.33	31.47	-0.05	7.64
31.214	20.20	29.34	0.05	7.74
31.237	17.70	26.85	-0.05	7.64
31.266	15.44	24.59	-0.02	7.67
31.289	16.86	26.00	-0.02	7.67
31.312	23.71	32.85	0.06	7.75
31.334	28.92	38.06	-0.05	7.64
31.357	31.16	40.30	0.04	7.73
31.379	27.20	36.34	-0.02	7.68
31.402	22.08	31.22	-0.03	7.66
31.425	22.61	31.75	0.07	7.76
31.447	24.36	33.50	-0.05	7.64
31.470	24.16	33.30	0.04	7.73
31.493	23.66	32.80	-0.01	7.68
31.515	21.62	30.76	-0.04	7.65
31.538	19.54	28.69	0.06	7.76
31.560	17.12	26.27	-0.05	7.64
31.583	15.08	24.23	0.04	7.73
31.606	18.08	27.22	0.00	7.70
31.628	24.89	34.03	-0.05	7.65
31.651	29.66	38.80	0.07	7.76
31.674	30.78	39.93	-0.04	7.65
31.696	25.94	35.08	0.03	7.73
31.719	21.24	30.39	-0.04	7.65
31.749	23.43	32.57	0.02	7.71
31.771	24.38	33.52	-0.05	7.65
31.794	24.02	33.16	0.06	7.76
31.817	23.25	32.40	-0.04	7.65
31.839	21.12	30.27	0.04	7.73
31.862	19.02	28.16	0.03	7.72
31.885	16.45	25.60	-0.05	7.64
31.907	14.79	23.94	0.06	7.76
31.930	20.11	29.26	-0.04	7.66
31.952	26.49	35.64	0.03	7.73
31.975	30.60	39.74	0.04	7.73
31.998	30.00	39.14	-0.05	7.64
32.020	24.38	33.53	0.06	7.75
32.043	21.43	30.57	-0.03	7.66
32.066	23.90	33.04	0.07	7.76
32.094	24.43	33.58	0.03	7.72
32.117	24.00	33.14	0.05	7.74
32.139	22.70	31.84	-0.05	7.64
32.162	20.48	29.63	0.06	7.75
32.185	18.15	27.29	-0.03	7.66
32.207	15.78	24.92	0.01	7.70
32.230	15.53	24.67	0.05	7.74
32.252	22.20	31.34	-0.05	7.64
32.275	27.96	37.10	0.06	7.75
32.298	30.93	40.08	-0.03	7.66
32.320	28.44	37.58	0.00	7.70
32.343	22.96	32.11	0.06	7.75
32.366	21.98	31.12	-0.06	7.63
32.388	24.33	33.48	0.06	7.75
32.411	24.39	33.54	-0.03	7.67
32.434	23.85	33.00	-0.00	7.69
32.456	22.37	31.51	0.06	7.75
32.479	20.27	29.42	-0.05	7.64
32.501	17.87	27.02	0.05	7.74
32.524	15.55	24.69	-0.03	7.66
32.547	16.66	25.80	-0.01	7.68
32.569	23.62	32.77	-0.02	7.67
32.599	29.30	38.44	0.06	7.75
32.621	31.09	40.23	-0.05	7.64
32.644	26.68	35.82	0.05	7.74
32.667	21.69	30.83	-0.02	7.67
32.689	22.68	31.83	-0.02	7.67
32.712	24.44	33.58	0.06	7.75
32.734	24.26	33.40	-0.05	7.64
32.757	23.63	32.77	0.04	7.73
32.780	21.59	30.73	-0.02	7.67
32.802	19.58	28.72	-0.03	7.67
32.825	17.09	26.23	0.07	7.76
32.848	15.00	24.15	-0.05	7.65
32.877	19.56	28.70	-0.05	7.64
32.900	25.99	35.14	0.04	7.74
32.923	30.28	39.42	-0.01	7.68
32.945	30.38	39.53	-0.04	7.65
32.968	24.96	34.10	0.06	7.76
32.991	21.34	30.48	-0.05	7.65
33.013	23.60	32.75	0.04	7.73
33.036	24.44	33.59	0.00	7.69
33.058	24.05	33.20	-0.05	7.65
33.081	23.32	32.47	0.06	7.76
33.104	20.96	30.11	-0.05	7.65
33.126	18.80	27.95	0.04	7.73
33.149	16.41	25.56	0.01	7.70
33.181	15.33	24.47	0.04	7.73
33.204	21.56	30.71	-0.05	7.64
33.227	27.55	36.70	0.06	7.76
33.249	30.86	40.00	-0.04	7.65
33.272	29.02	38.16	0.04	7.73
33.295	23.45	32.60	0.02	7.71
33.317	21.78	30.92	-0.05	7.64
33.340	24.27	33.42	0.07	7.76
33.363	24.43	33.57	-0.04	7.66
33.385	23.98	33.12	0.03	7.73
33.408	22.55	31.69	0.03	7.73
33.430	20.22	29.36	-0.05	7.64
33.453	17.92	27.06	0.06	7.75
33.476	15.71	24.85	-0.04	7.66
33.498	16.20	25.34	0.03	7.72
33.521	22.86	32.00	0.04	7.73
33.544	28.42	37.56	-0.05	7.64
33.566	31.03	40.17	0.06	7.75
33.589	28.06	37.20	-0.03	7.66
33.611	22.44	31.59	0.02	7.71
33.634	22.03	31.18	0.05	7.74
33.657	24.27	33.42	-0.05	7.64
33.679	24.27	33.41	0.06	7.75
33.702	23.80	32.95	-0.03	7.66
33.725	22.03	31.17	0.01	7.70
33.747	19.92	29.07	0.06	7.75
33.770	17.61	26.75	-0.06	7.63
33.793	15.37	24.52	0.06	7.75
33.815	17.13	26.27	-0.03	7.67
33.838	23.94	33.08	0.00	7.69
33.860	29.09	38.24	0.06	7.75
33.883	30.85	39.99	-0.05	7.64
33.906	26.48	35.63	0.06	7.75
33.935	21.43	30.57	0.05	7.74
33.958	22.96	32.11	-0.03	7.67
33.980	24.25	33.40	0.04	7.73
34.005	24.07	33.21	-0.01	7.68
34.028	23.27	32.42	0.06	7.75
34.050	21.15	30.29	-0.05	7.64
34.073	18.99	28.14	0.05	7.74
34.096	16.52	25.66	-0.02	7.67
34.118	14.87	24.02	-0.02	7.67
34.141	19.94	29.09	0.06	7.76
34.163	26.33	35.48	-0.05	7.64
34.186	30.48	39.62	0.04	7.73
34.209	30.01	39.15	-0.02	7.67
34.231	24.49	33.63	-0.03	7.66
34.254	21.38	30.52	0.07	7.76
34.277	23.64	32.79	-0.05	7.64
34.299	24.38	33.52	0.06	7.75
34.328	24.00	33.14	0.04	7.73
34.350	22.65	31.80	-0.00	7.69
34.373	20.43	29.58	-0.04	7.65
34.395	18.18	27.32	0.07	7.76
34.418	15.87	25.01	-0.05	7.65
34.441	15.49	24.63	0.04	7.73
34.463	21.92	31.07	0.01	7.70
34.486	27.60	36.74	-0.05	7.65
34.509	30.78	39.92	0.07	7.76
34.531	28.52	37.67	-0.04	7.65
34.554	22.97	32.12	0.03	7.73
34.577	21.75	30.90	0.03	7.72
34.599	24.08	33.23	-0.05	7.64
34.622	24.29	33.43	0.07	7.76
34.644	23.82	32.97	-0.04	7.66
34.667	22.26	31.41	0.03	7.72
34.690	20.12	29.27	0.03	7.73
34.712	17.83	26.97	-0.05	7.64
34.735	15.54	24.69	0.07	7.76
34.758	16.44	25.58	-0.03	7.66
34.780	23.24	32.38	0.03	7.72
34.803	28.82	37.97	0.04	7.73
34.825	31.08	40.23	-0.05	7.64
34.848	27.52	36.67	0.06	7.75
34.871	22.24	31.39	-0.03	7.66
34.893	22.29	31.44	0.02	7.71
34.916	24.37	33.51	0.05	7.74
34.939	24.33	33.47	-0.05	7.64
34.961	23.74	32.88	0.05	7.75
34.984	21.99	31.13	-0.03	7.66
35.006	19.78	28.92	0.01	7.70
35.029	17.38	26.52	0.06	7.75
35.052	15.09	24.24	-0.06	7.64
35.074	17.70	26.85	0.05	7.74
35.097	24.42	33.56	-0.03	7.67
35.120	29.42	38.57	-0.01	7.69
35.142	30.33	39.48	-0.02	7.67
35.172	25.67	34.82	0.06	7.75
35.194	21.40	30.54	-0.05	7.64
35.217	23.21	32.35	0.05	7.74
35.240	24.37	33.51	-0.05	7.64
35.265	23.90	33.05	0.06	7.76
35.288	22.47	31.61	-0.05	7.64
35.310	20.25	29.40	0.04	7.73
35.333	17.93	27.08	-0.02	7.67
35.356	15.71	24.85	-0.03	7.66
35.378	16.10	25.25	0.06	7.76
35.401	22.82	31.96	-0.05	7.64
35.423	28.59	37.74	0.06	7.75
35.452	31.03	40.18	0.04	7.73
35.475	27.36	36.50	-0.00	7.69
35.497	22.24	31.38	-0.04	7.65
35.520	22.68	31.82	0.06	7.76
35.543	24.57	33.71	-0.05	7.64
35.565	24.40	33.54	0.04	7.73
35.588	23.69	32.84	0.01	7.70
35.610	21.66	30.80	-0.05	7.65
35.633	19.58	28.72	0.07	7.76
35.656	17.20	26.34	-0.04	7.65
35.678	15.11	24.25	0.04	7.73
35.701	17.96	27.10	0.02	7.71
35.724	24.54	33.68	-0.05	7.64
35.746	29.52	38.67	0.07	7.76
35.769	31.03	40.18	-0.04	7.66
35.791	26.17	35.31	0.03	7.72
35.814	21.60	30.74	0.03	7.73
35.837	22.98	32.13	-0.05	7.64
35.859	24.38	33.52	0.06	7.75
35.882	24.31	33.46	-0.03	7.66
35.905	23.47	32.62	0.02	7.71
35.927	21.34	30.49	0.05	7.74
35.950	19.20	28.34	-0.06	7.63
35.972	16.87	26.02	0.05	7.75
35.995	14.90	24.05	-0.03	7.66
36.018	19.32	28.46	0.01	7.70
36.040	25.79	34.94	0.06	7.75
36.063	30.08	39.23	-0.05	7.64
36.086	30.48	39.63	0.05	7.75
36.108	25.09	34.23	-0.03	7.67
36.131	21.40	30.55	-0.00	7.69
36.153	23.64	32.79	0.06	7.75
36.176	24.52	33.66	-0.05	7.64
36.199	24.14	33.28	0.05	7.74
36.221	23.25	32.39	-0.03	7.66
36.244	21.11	30.26	-0.02	7.67
36.266	18.79	27.93	0.06	7.75
36.289	16.26	25.40	-0.04	7.65
36.319	15.16	24.30	-0.05	7.64
36.341	21.35	30.49	0.04	7.73
36.364	27.32	36.47	-0.02	7.68
36.387	30.95	40.09	-0.04	7.65
36.409	29.15	38.30	0.07	7.76
36.432	23.58	32.73	-0.05	7.64
36.455	21.77	30.92	0.04	7.73
36.477	24.28	33.42	0.00	7.69
36.500	24.54	33.68	-0.05	7.65
36.522	24.03	33.18	-0.02	7.67
36.551	22.38	31.53	0.06	7.76
36.573	20.02	29.17	-0.05	7.64
36.603	17.45	26.60	-0.04	7.65
36.625	15.30	24.44	0.03	7.73
36.648	17.18	26.33	0.02	7.72
36.671	23.94	33.08	-0.05	7.64
36.693	29.04	38.19	0.07	7.76
36.716	30.98	40.13	-0.04	7.65
36.739	26.99	36.13	0.03	7.72
36.761	21.93	31.07	0.04	7.73
36.784	22.82	31.96	-0.05	7.64
36.806	24.42	33.56	0.06	7.75
36.829	24.24	33.39	-0.04	7.66
36.852	23.60	32.75	0.02	7.71
36.874	21.63	30.78	0.05	7.74
36.897	19.50	28.64	-0.06	7.63
36.920	17.05	26.20	0.06	7.75
36.942	15.08	24.23	-0.03	7.66
36.965	18.52	27.67	0.00	7.70
36.987	25.15	34.29	0.06	7.75
37.010	29.94	39.08	-0.05	7.64
37.033	30.62	39.76	0.05	7.74
37.055	25.63	34.77	-0.03	7.67
37.078	21.30	30.45	-0.01	7.68
37.101	23.27	32.42	0.06	7.75
37.123	24.41	33.55	-0.06	7.64
37.146	24.19	33.33	0.05	7.74
37.168	23.32	32.46	-0.02	7.67
37.191	21.27	30.41	-0.03	7.66
37.214	19.08	28.22	0.07	7.76
37.236	16.66	25.80	-0.05	7.64
37.259	14.98	24.13	0.04	7.73
37.282	19.84	28.98	-0.01	7.68
37.304	26.17	35.31	-0.04	7.65
37.327	30.39	39.53	0.06	7.76
37.349	30.16	39.30	-0.05	7.64
37.372	24.58	33.73	0.04	7.73
37.395	21.42	30.56	0.01	7.70
37.417	23.75	32.89	0.03	7.72
37.447	24.34	33.48	-0.05	7.65
37.470	24.06	33.21	0.07	7.76
37.492	22.78	31.93	-0.04	7.65
37.515	20.63	29.77	0.03	7.72
37.538	18.33	27.48	0.03	7.72
37.560	15.97	25.12	-0.05	7.64
37.583	15.45	24.59	0.06	7.76
37.606	21.98	31.13	-0.04	7.66
37.628	27.88	37.03	0.03	7.72
37.651	31.10	40.25	-0.04	7.65
37.679	28.33	37.48	0.04	7.73
37.702	22.78	31.93	-0.06	7.63
37.725	22.22	31.36	0.06	7.75
37.747	24.41	33.55	-0.03	7.66
37.770	24.31	33.45	0.01	7.70
37.792	23.76	32.91	0.05	7.75
37.815	22.05	31.19	-0.06	7.64
37.838	20.02	29.17	0.05	7.75
37.860	17.65	26.80	-0.03	7.66
37.883	15.40	24.55	-0.00	7.69
37.906	17.21	26.35	-0.03	7.66
37.935	24.34	33.48	0.06	7.75
37.958	29.53	38.67	-0.05	7.64
37.980	31.02	40.17	0.05	7.74
38.003	26.33	35.47	-0.03	7.67
38.025	21.68	30.83	-0.02	7.67
38.048	23.01	32.16	0.06	7.75
38.071	24.43	33.58	-0.05	7.64
38.093	24.34	33.48	0.04	7.73
38.116	23.55	32.69	-0.02	7.67
38.139	21.38	30.53	-0.03	7.66
38.161	19.34	28.48	0.06	7.76
38.184	16.88	26.03	-0.05	7.64
38.207	14.93	24.08	0.04	7.73
38.229	19.09	28.23	-0.00	7.69
38.252	25.54	34.69	-0.04	7.65
38.274	29.98	39.13	0.07	7.76
38.297	30.52	39.67	-0.04	7.65
38.320	25.06	34.21	0.04	7.73
38.342	21.36	30.50	0.00	7.70
38.365	23.48	32.62	-0.05	7.65
38.388	24.36	33.50	0.07	7.76
38.410	24.12	33.27	-0.05	7.65
38.433	23.24	32.38	0.04	7.73
38.455	21.05	30.20	0.02	7.71
38.478	18.86	28.00	-0.05	7.64
38.501	16.52	25.67	0.06	7.76
38.523	14.98	24.12	-0.04	7.65
38.546	20.64	29.78	0.06	7.76
38.576	27.30	36.45	0.03	7.73
38.598	30.90	40.04	0.03	7.72
38.621	29.37	38.51	-0.05	7.64
38.644	23.75	32.90	0.06	7.75
38.666	21.67	30.82	-0.03	7.66
38.689	24.29	33.43	0.03	7.72
38.712	24.63	33.77	0.04	7.73
38.734	24.12	33.26	-0.06	7.63
38.765	22.34	31.48	-0.01	7.68
38.785	20.26	29.40	0.06	7.75
38.808	17.86	27.00	-0.03	7.66
38.830	15.74	24.88	0.01	7.70
38.853	16.50	25.65	0.05	7.75
38.876	23.25	32.39	-0.05	7.64
38.898	28.49	37.64	0.06	7.75
38.921	31.12	40.26	-0.03	7.67
38.944	27.91	37.05	0.01	7.70
38.966	22.51	31.65	0.06	7.75
38.989	22.43	31.57	-0.05	7.64
39.011	24.45	33.59	0.06	7.75
39.034	24.35	33.50	-0.03	7.66
39.057	23.76	32.91	-0.00	7.69
39.079	21.91	31.05	0.06	7.75
39.102	19.77	28.91	-0.05	7.64
39.125	17.38	26.52	0.05	7.74
39.147	15.25	24.40	-0.03	7.66
39.170	17.53	26.67	-0.01	7.68
39.193	24.35	33.49	0.06	7.76
39.215	29.41	38.55	-0.06	7.64
39.238	30.93	40.07	0.06	7.76
39.267	25.92	35.07	0.05	7.74
39.290	21.50	30.64	-0.02	7.67
39.312	23.28	32.42	-0.03	7.66
39.335	24.53	33.68	0.06	7.76
39.358	24.25	33.40	-0.05	7.64
39.380	23.52	32.66	0.04	7.73
39.403	21.35	30.49	-0.01	7.68
39.426	19.26	28.41	-0.04	7.65
39.448	16.80	25.95	0.07	7.76
39.471	14.99	24.14	-0.05	7.64
39.493	19.73	28.87	0.04	7.73
39.516	26.13	35.28	-0.00	7.69
39.539	30.33	39.47	-0.04	7.65
39.561	30.34	39.48	0.07	7.76
39.584	24.71	33.85	-0.04	7.65
39.607	21.37	30.51	0.04	7.73
39.629	23.72	32.86	0.00	7.69
39.652	24.53	33.68	-0.05	7.65
39.675	24.15	33.29	0.03	7.73
39.704	23.00	32.14	0.07	7.76
39.727	20.83	29.98	-0.04	7.65
39.750	18.52	27.66	0.04	7.73
39.772	16.13	25.28	0.02	7.71
39.795	15.40	24.54	-0.05	7.64
39.818	22.11	31.25	-0.00	7.69
39.846	28.22	37.36	0.07	7.76
39.869	30.93	40.08	-0.03	7.66
39.891	28.32	37.46	0.03	7.73
39.914	22.84	31.99	0.03	7.72
39.937	22.11	31.25	-0.05	7.64
39.959	24.38	33.53	0.06	7.75
39.982	24.47	33.61	-0.03	7.66
40.005	23.97	33.11	0.03	7.72
40.027	22.25	31.39	0.04	7.74
40.050	20.11	29.26	-0.06	7.64
40.072	17.71	26.85	0.06	7.76
40.095	15.51	24.65	-0.03	7.66
40.118	16.88	26.02	0.02	7.72
40.140	23.64	32.78	0.05	7.74
40.163	29.00	38.15	-0.05	7.64
40.186	31.32	40.46	0.06	7.75
40.208	27.35	36.50	-0.03	7.66
40.231	22.10	31.24	0.01	7.70
40.253	22.65	31.79	0.06	7.75
40.276	24.52	33.67	-0.06	7.64
40.299	24.46	33.60	0.05	7.74
40.321	23.86	33.00	-0.03	7.67
40.344	22.15	31.30	-0.00	7.69
40.372	19.73	28.88	-0.04	7.65
40.399	17.12	26.26	0.06	7.75
40.422	15.18	24.32	-0.05	7.64
40.445	19.05	28.20	0.05	7.74
40.467	25.56	34.70	-0.03	7.67
40.490	30.15	39.29	-0.01	7.68
40.512	30.79	39.94	0.06	7.75
40.535	25.63	34.78	-0.06	7.64
40.558	21.53	30.67	0.05	7.74
40.580	23.72	32.86	-0.05	7.64
40.610	24.62	33.76	-0.02	7.67
40.632	24.14	33.29	-0.03	7.66
40.655	23.43	32.57	0.07	7.76
40.678	21.06	30.20	-0.05	7.64
40.700	18.88	28.03	0.04	7.73
40.723	16.46	25.60	-0.01	7.68
40.746	15.33	24.48	-0.04	7.66
40.768	21.16	30.30	0.07	7.76
40.791	27.39	36.53	-0.04	7.65
40.813	31.28	40.42	-0.04	7.66
40.834	27.18	36.33	-0.05	7.65
40.856	22.27	31.41	0.07	7.76
40.879	23.10	32.24	-0.04	7.65
40.901	24.86	34.00	0.04	7.73
40.924	24.45	33.59	-0.05	7.64
40.953	23.68	32.83	0.02	7.71
40.975	21.75	30.89	-0.05	7.64
40.998	19.46	28.60	0.07	7.76
41.021	17.03	26.17	-0.04	7.65
41.043	15.17	24.31	0.04	7.73
41.066	19.41	28.55	0.03	7.72
41.089	25.93	35.07	-0.05	7.64
41.111	30.35	39.49	0.07	7.76
41.134	30.78	39.93	-0.04	7.65
41.156	25.43	34.57	0.03	7.72
41.179	21.60	30.75	0.04	7.73
41.202	23.70	32.84	-0.05	7.64
41.224	24.65	33.80	0.06	7.76
41.247	24.32	33.47	-0.03	7.66
41.270	23.44	32.59	0.02	7.72
41.292	21.22	30.36	0.04	7.74
41.315	19.04	28.18	-0.05	7.64
41.338	16.66	25.80	0.06	7.75
41.360	15.20	24.35	-0.03	7.66
41.383	20.71	29.85	0.01	7.71
41.405	26.99	36.14	0.06	7.75
41.428	30.75	39.90	-0.05	7.64
41.451	30.10	39.24	0.06	7.75
41.473	24.28	33.42	-0.03	7.66
41.496	21.61	30.75	0.00	7.70
41.519	24.10	33.24	0.06	7.75
41.541	24.64	33.78	-0.05	7.64
41.564	24.11	33.25	0.05	7.75
41.587	23.13	32.28	-0.03	7.67
41.609	20.88	30.02	-0.00	7.69
41.632	18.56	27.70	0.06	7.75
41.654	16.15	25.30	-0.06	7.64
41.677	15.52	24.67	0.05	7.74
41.700	21.94	31.08	-0.02	7.67
41.722	27.87	37.01	-0.01	7.68
41.745	31.27	40.41	0.06	7.75
41.768	29.24	38.38	-0.06	7.64
41.790	23.58	32.72	0.04	7.74
41.813	22.12	31.26	-0.02	7.67
41.835	24.56	33.70	-0.02	7.67
41.858	24.70	33.85	0.06	7.75
41.881	24.07	33.22	-0.05	7.64
41.903	22.57	31.72	0.06	7.76
41.933	20.10	29.24	0.04	7.73
41.955	17.43	26.58	-0.00	7.69
41.980	15.28	24.42	-0.01	7.68
42.003	17.75	26.90	-0.03	7.66
42.026	24.48	33.62	0.07	7.76
42.048	29.63	38.78	-0.01	7.68
42.077	30.86	40.00	-0.05	7.64
42.099	26.00	35.14	0.04	7.74
42.122	21.62	30.76	0.00	7.69
42.145	23.47	32.61	-0.04	7.65
42.167	24.57	33.72	0.06	7.76
42.190	24.28	33.42	-0.04	7.65
42.212	23.54	32.69	0.04	7.73
42.235	21.41	30.55	0.01	7.70
42.258	19.11	28.26	-0.05	7.64
42.280	16.77	25.92	0.06	7.76
42.303	15.08	24.23	-0.04	7.65
42.326	19.87	29.01	0.04	7.73
42.348	26.37	35.52	0.02	7.71
42.371	30.66	39.80	-0.05	7.65
42.393	30.43	39.58	0.07	7.76
42.416	24.87	34.02	-0.04	7.65
42.439	21.39	30.54	0.04	7.73
42.461	23.97	33.12	0.03	7.72
42.484	24.67	33.81	-0.05	7.64
42.507	24.24	33.39	0.06	7.76
42.529	23.36	32.50	-0.03	7.66
42.552	21.12	30.26	0.03	7.72
42.574	18.83	27.97	0.04	7.73
42.597	16.35	25.50	-0.05	7.64
42.620	15.19	24.33	0.06	7.75
42.642	21.15	30.29	-0.03	7.66
42.665	27.29	36.44	0.02	7.71
42.688	30.99	40.14	0.05	7.74
42.710	29.71	38.85	-0.05	7.64
42.733	23.93	33.07	0.06	7.75
42.755	21.73	30.87	-0.03	7.66
42.778	24.25	33.39	0.01	7.70
42.801	24.55	33.70	0.06	7.75
42.823	24.14	33.28	-0.05	7.64
42.846	22.97	32.11	0.06	7.75
42.869	20.64	29.78	-0.03	7.67
42.891	18.40	27.55	0.00	7.69
42.914	16.00	25.15	0.06	7.75
42.936	15.77	24.91	-0.05	7.64
42.959	22.47	31.61	0.05	7.75
42.982	28.32	37.46	-0.03	7.67
43.004	31.32	40.46	-0.01	7.68
43.027	28.88	38.03	0.06	7.75
43.050	23.20	32.34	-0.05	7.64
43.072	22.22	31.36	0.05	7.74
43.095	24.60	33.74	-0.02	7.67
43.117	24.50	33.64	0.04	7.73
43.147	23.92	33.06	0.04	7.73
43.168	22.23	31.37	0.07	7.76
43.191	20.07	29.21	-0.05	7.64
43.213	17.74	26.89	0.04	7.73
43.236	15.39	24.54	-0.05	7.64
43.265	18.34	27.49	-0.01	7.68
43.288	25.07	34.21	-0.04	7.65
43.311	29.95	39.10	0.07	7.76
43.333	31.21	40.35	-0.04	7.65
43.356	26.14	35.28	0.04	7.73
43.378	21.74	30.89	0.01	7.70
43.401	23.38	32.52	-0.05	7.65
43.424	24.64	33.79	0.07	7.76
43.446	24.44	33.58	-0.04	7.65
43.469	23.65	32.79	0.04	7.73
43.492	21.65	30.80	0.02	7.72
43.514	19.42	28.57	-0.05	7.64
43.537	16.88	26.03	0.06	7.76
43.559	15.18	24.32	-0.04	7.65
43.582	19.76	28.91	0.03	7.73
43.605	26.19	35.34	0.03	7.73
43.627	30.40	39.54	-0.05	7.64
43.650	30.51	39.65	0.06	7.76
43.673	25.07	34.21	-0.03	7.66
43.695	21.52	30.66	0.03	7.72
43.718	23.85	33.00	0.05	7.74
43.740	24.55	33.69	-0.05	7.64
43.763	24.15	33.29	0.06	7.75
43.786	23.28	32.42	-0.03	7.66
43.808	21.15	30.29	0.01	7.70
43.831	18.95	28.09	0.06	7.75
43.854	16.51	25.66	-0.05	7.64
43.876	15.24	24.38	0.06	7.75
43.899	20.97	30.12	-0.03	7.66
43.921	27.22	36.36	-0.00	7.69
43.944	30.94	40.09	0.06	7.75
43.967	29.82	38.97	-0.05	7.64
43.989	24.10	33.24	0.05	7.74
44.012	21.65	30.80	-0.02	7.67
44.035	24.28	33.43	-0.02	7.67
44.057	24.55	33.69	0.06	7.75
44.080	24.11	33.25	-0.05	7.64
44.103	22.89	32.03	0.04	7.73
44.125	20.64	29.78	-0.02	7.67
44.148	18.33	27.48	-0.03	7.66
44.170	16.12	25.26	0.06	7.76
44.193	15.78	24.93	-0.05	7.64
44.216	22.19	31.33	0.04	7.73
44.238	28.08	37.22	-0.04	7.65
44.268	31.37	40.51	-0.01	7.69
44.291	27.47	36.62	-0.04	7.65
44.321	22.03	31.17	0.00	7.70
44.343	23.04	32.18	-0.05	7.64
44.366	24.67	33.81	0.06	7.76
44.388	24.42	33.57	-0.05	7.65
44.411	23.76	32.91	0.04	7.73
44.434	21.85	31.00	0.02	7.71
44.456	19.75	28.89	-0.05	7.64
44.479	17.30	26.45	0.07	7.76
44.502	15.32	24.46	-0.04	7.66
44.524	18.95	28.10	0.03	7.72
44.547	25.70	34.85	0.04	7.73
44.569	30.36	39.51	0.03	7.72
44.599	30.68	39.82	-0.05	7.64
44.621	25.12	34.26	0.06	7.75
44.644	21.53	30.68	-0.03	7.66
44.667	23.92	33.06	0.03	7.72
44.689	24.68	33.82	0.05	7.74
44.712	24.26	33.40	-0.05	7.64
44.735	23.40	32.54	0.05	7.75
44.757	21.19	30.33	-0.03	7.66
44.780	18.99	28.14	0.01	7.70
44.802	16.60	25.75	0.05	7.75
44.825	15.33	24.47	-0.06	7.63
44.848	21.12	30.27	0.05	7.75
44.870	27.30	36.44	-0.03	7.66
44.893	31.00	40.14	-0.00	7.69
44.916	29.91	39.05	0.06	7.75
44.938	24.17	33.31	-0.05	7.64
44.961	21.71	30.85	0.05	7.74
44.983	24.28	33.42	-0.02	7.67
45.006	24.68	33.82	-0.02	7.68
45.029	24.23	33.37	0.06	7.75
45.051	23.00	32.14	-0.05	7.64
45.074	20.71	29.85	0.04	7.74
45.097	18.39	27.54	-0.02	7.67
45.119	16.00	25.14	-0.04	7.66
45.142	15.73	24.88	0.07	7.76
45.164	22.39	31.54	-0.05	7.64
45.187	28.06	37.21	0.04	7.73
45.210	31.24	40.39	-0.01	7.69
45.232	28.95	38.10	-0.04	7.65
45.255	23.33	32.47	0.07	7.76
45.278	22.12	31.26	-0.05	7.65
45.300	24.54	33.68	0.04	7.73
45.323	24.59	33.73	0.00	7.69
45.345	23.98	33.12	-0.05	7.64
45.368	22.47	31.62	0.03	7.72
45.398	20.06	29.20	0.07	7.76
45.421	17.68	26.83	-0.04	7.65
45.443	15.60	24.75	0.03	7.73
45.466	17.45	26.60	0.03	7.72
45.489	24.29	33.43	-0.05	7.64
45.511	29.56	38.71	0.07	7.76
45.534	31.35	40.49	-0.04	7.65
45.556	27.13	36.28	0.03	7.72
45.579	22.26	31.40	0.03	7.72
45.602	23.04	32.18	-0.05	7.64
45.624	24.85	33.99	0.06	7.76
45.647	24.54	33.68	-0.03	7.66
45.670	23.82	32.97	0.03	7.72
45.692	22.10	31.24	0.04	7.74
45.715	19.75	28.89	-0.06	7.64
45.737	17.37	26.52	0.06	7.75
45.760	15.27	24.42	-0.03	7.66
45.783	18.77	27.92	0.02	7.71
45.805	25.48	34.62	0.05	7.74
45.828	30.24	39.39	-0.05	7.64
45.851	31.01	40.16	0.06	7.75
45.873	25.97	35.11	-0.03	7.67
45.896	21.66	30.80	0.06	7.75
45.925	23.89	33.04	0.00	7.70
45.948	24.69	33.84	0.06	7.75
45.970	24.25	33.40	-0.05	7.64
45.993	23.52	32.67	0.05	7.75
46.016	21.34	30.49	-0.03	7.66
46.038	19.07	28.22	-0.01	7.69
46.061	16.64	25.79	0.06	7.75
46.084	15.29	24.43	-0.05	7.64
46.106	20.83	29.98	0.05	7.74
46.129	27.13	36.28	-0.02	7.67
46.152	30.87	40.01	-0.01	7.68
46.174	30.06	39.20	0.06	7.75
46.197	24.36	33.50	-0.05	7.64
46.219	21.79	30.93	0.05	7.74
46.242	24.31	33.45	-0.02	7.67
46.265	24.74	33.89	-0.02	7.67
46.287	24.20	33.35	0.06	7.75
46.310	23.09	32.23	-0.05	7.64
46.333	20.71	29.85	0.04	7.73
46.355	18.61	27.75	-0.02	7.67
46.378	16.21	25.35	-0.04	7.65
46.401	15.74	24.88	0.07	7.76
46.423	22.13	31.27	-0.05	7.64
46.446	28.00	37.14	0.04	7.73
46.468	31.38	40.52	-0.01	7.68
46.491	25.42	34.56	0.05	7.75
46.519	21.60	30.75	-0.05	7.65
46.541	23.93	33.08	0.07	7.76
46.564	24.75	33.89	-0.05	7.65
46.587	24.44	33.58	0.04	7.73
46.609	23.50	32.64	0.00	7.70
46.632	21.18	30.32	-0.05	7.65
46.654	18.98	28.12	0.07	7.76
46.677	16.56	25.70	-0.04	7.65
46.700	15.34	24.48	0.04	7.73
46.722	21.19	30.33	0.02	7.71
46.745	27.34	36.49	-0.05	7.64
46.768	31.04	40.19	0.06	7.76
46.790	30.04	39.19	-0.04	7.65
46.813	24.34	33.49	0.04	7.73
46.835	22.01	31.15	0.03	7.72
46.858	24.56	33.70	-0.05	7.64
46.881	24.85	34.00	0.06	7.76
46.903	24.18	33.32	-0.03	7.66
46.926	23.23	32.38	0.03	7.72
46.949	20.85	30.00	0.03	7.73
46.971	18.65	27.80	-0.05	7.64
46.994	16.26	25.40	0.06	7.75
47.016	16.08	25.22	-0.03	7.66
47.039	22.61	31.75	0.03	7.72
47.062	28.48	37.62	0.04	7.73
47.084	31.59	40.73	-0.05	7.64
47.107	29.14	38.28	0.06	7.76
47.130	23.61	32.75	-0.03	7.66
47.152	22.46	31.60	0.02	7.72
47.175	24.99	34.13	0.05	7.74
47.197	24.82	33.96	-0.06	7.63
47.220	24.14	33.29	0.05	7.74
47.249	22.54	31.68	0.06	7.75
47.272	20.13	29.28	-0.03	7.66
47.295	17.86	27.01	0.01	7.70
47.317	15.68	24.82	0.05	7.74
47.340	17.71	26.85	-0.05	7.64
47.363	24.52	33.66	0.05	7.75
47.385	29.73	38.87	-0.03	7.66
47.408	31.67	40.81	0.01	7.70
47.430	27.34	36.48	0.06	7.75
47.453	22.38	31.52	-0.05	7.64
47.476	23.27	32.42	0.05	7.75
47.498	24.98	34.12	-0.03	7.66
47.521	24.60	33.75	-0.00	7.69
47.544	24.05	33.19	0.06	7.75
47.566	22.24	31.38	-0.05	7.64
47.589	19.93	29.08	0.05	7.74
47.612	16.65	25.80	-0.05	7.65
47.639	15.81	24.95	0.06	7.75
47.661	22.14	31.29	-0.05	7.64
47.684	28.02	37.16	0.05	7.74
47.706	31.17	40.32	-0.02	7.67
47.729	29.36	38.50	-0.02	7.67
47.752	23.54	32.68	0.06	7.76
47.774	22.09	31.23	-0.05	7.64
47.797	24.64	33.78	0.04	7.74
47.820	24.72	33.86	-0.02	7.67
47.842	24.10	33.24	-0.03	7.66
47.865	23.08	32.22	0.06	7.76
47.887	20.76	29.91	-0.05	7.64
47.910	18.42	27.57	0.04	7.73
47.933	16.02	25.16	-0.02	7.67
47.955	16.52	25.67	-0.04	7.66
47.978	23.35	32.49	0.07	7.76
48.000	28.82	37.97	-0.05	7.64
48.023	31.53	40.67	0.04	7.74
48.046	28.49	37.63	-0.02	7.68
48.068	23.00	32.15	-0.04	7.65
48.091	22.86	32.00	0.07	7.76
48.114	24.99	34.14	-0.05	7.64
48.136	24.94	34.08	0.04	7.73
48.159	24.12	33.26	-0.00	7.69
48.181	22.69	31.84	-0.04	7.65
48.204	20.32	29.47	0.07	7.76
48.227	17.83	26.97	-0.05	7.64
48.249	15.68	24.83	0.04	7.73
48.272	17.59	26.73	0.00	7.70
48.295	24.50	33.64	-0.05	7.65
48.317	29.61	38.75	0.07	7.76
48.340	31.45	40.60	-0.04	7.65
48.362	27.33	36.48	0.04	7.73
48.385	22.27	31.42	0.01	7.70
48.408	23.27	32.41	-0.05	7.64
48.430	24.92	34.07	0.07	7.76
48.453	24.55	33.69	-0.04	7.65
48.476	23.95	33.09	0.04	7.73
48.498	22.15	31.30	0.01	7.70
48.521	19.87	29.02	-0.05	7.64
48.543	17.35	26.49	0.02	7.71
48.573	15.42	24.56	0.07	7.76
48.595	19.79	28.93	-0.04	7.65
48.618	26.52	35.66	0.03	7.72
48.641	30.79	39.94	0.02	7.71
48.663	30.95	40.09	-0.05	7.64
48.686	25.40	34.55	0.06	7.76
48.709	21.66	30.80	-0.04	7.65
48.731	24.32	33.46	0.05	7.74
48.758	24.79	33.94	0.06	7.75
48.778	24.23	33.38	0.03	7.72
48.801	23.42	32.56	-0.05	7.64
48.824	21.13	30.27	0.06	7.75
48.846	18.91	28.05	-0.04	7.65
48.869	16.47	25.61	0.03	7.72
48.891	15.69	24.83	0.04	7.73
48.914	21.92	31.07	-0.05	7.64
48.937	27.89	37.03	0.06	7.75
48.959	31.33	40.48	-0.03	7.66
48.982	29.63	38.78	0.03	7.72
49.005	23.94	33.08	0.04	7.73
49.027	22.02	31.17	-0.05	7.64
49.050	24.60	33.74	0.06	7.75
49.072	24.73	33.88	-0.03	7.66
49.095	24.17	33.31	0.03	7.72
49.118	23.02	32.16	0.05	7.74
49.140	20.61	29.76	-0.05	7.64
49.163	18.28	27.43	0.06	7.75
49.186	15.92	25.06	-0.03	7.66
49.208	16.19	25.34	0.03	7.72
49.231	23.11	32.25	0.05	7.74
49.254	28.67	37.82	-0.05	7.64
49.276	31.40	40.54	0.06	7.75
49.299	28.43	37.57	-0.03	7.66
49.321	22.98	32.12	0.02	7.71
49.344	22.47	31.61	0.05	7.74
49.367	24.76	33.90	-0.06	7.64
49.389	24.57	33.71	0.06	7.75
49.412	24.04	33.18	-0.03	7.66
49.435	22.50	31.64	0.01	7.70
49.457	20.22	29.37	0.06	7.75
49.480	17.93	27.07	-0.06	7.63
49.507	15.54	24.69	0.01	7.70
49.535	18.10	27.24	0.06	7.75
49.558	24.86	34.01	-0.03	7.66
49.580	30.02	39.16	0.01	7.70
49.603	31.47	40.61	0.05	7.75
49.626	26.79	35.93	-0.06	7.64
49.648	22.01	31.16	0.06	7.75
49.671	23.37	32.52	-0.03	7.67
49.693	24.80	33.94	0.00	7.69
49.716	24.43	33.57	0.06	7.75
49.739	23.69	32.84	-0.06	7.63
49.761	21.78	30.93	0.05	7.74
49.784	19.51	28.65	-0.03	7.66
49.806	17.17	26.32	0.00	7.69
49.829	15.17	24.31	-0.03	7.66
49.857	20.22	29.36	0.06	7.75
49.880	26.80	35.95	-0.01	7.68
49.909	31.05	40.20	-0.06	7.64
49.932	30.01	39.15	0.05	7.74
49.955	24.40	33.54	-0.03	7.66
49.977	21.85	30.99	-0.01	7.68
50.000	24.40	33.55	0.06	7.75
50.022	24.80	33.94	-0.05	7.64
50.045	24.25	33.40	0.05	7.74
50.068	23.35	32.49	-0.03	7.67
50.090	20.93	30.07	-0.02	7.68
50.113	18.66	27.80	0.06	7.75
50.136	16.32	25.47	-0.06	7.64
50.158	15.92	25.07	0.05	7.74
50.181	22.36	31.51	-0.03	7.67
50.203	28.27	37.41	-0.02	7.67
50.226	31.36	40.51	0.07	7.76
50.249	29.20	38.35	-0.05	7.64
50.271	23.52	32.67	0.04	7.74
50.294	22.35	31.50	-0.02	7.67
50.317	24.82	33.96	-0.02	7.67
50.339	24.72	33.87	0.07	7.76
50.362	24.08	33.22	-0.05	7.64
50.384	22.68	31.82	0.04	7.73
50.407	20.41	29.56	-0.02	7.68
50.430	18.20	27.34	-0.03	7.66
50.452	15.95	25.10	0.07	7.76
50.475	16.79	25.93	-0.05	7.64
50.498	23.69	32.83	0.04	7.74
50.520	29.13	38.27	-0.01	7.68
50.543	31.59	40.74	-0.04	7.65
50.565	28.06	37.20	0.07	7.76
50.588	22.68	31.83	-0.05	7.64
50.611	22.68	31.82	0.04	7.73
50.633	24.71	33.85	-0.01	7.69
50.656	24.64	33.79	-0.05	7.65
50.679	24.04	33.18	0.07	7.77
50.701	22.37	31.51	-0.06	7.64
50.724	20.05	29.19	0.03	7.73
50.747	17.81	26.95	0.01	7.70
50.769	15.62	24.76	-0.05	7.64
50.792	18.08	27.23	0.07	7.76
50.814	24.86	34.00	-0.04	7.65
50.837	29.82	38.96	0.04	7.73
50.860	31.45	40.60	0.01	7.71
50.882	26.86	36.00	-0.05	7.64
50.905	22.20	31.34	0.07	7.76
50.928	23.62	32.76	-0.04	7.65
50.956	24.95	34.09	-0.04	7.65
50.979	24.48	33.62	0.04	7.73
51.001	23.69	32.83	0.02	7.71
51.024	21.76	30.91	-0.05	7.64
51.047	19.40	28.55	0.04	7.73
51.077	16.88	26.02	0.06	7.76
51.099	15.40	24.55	-0.04	7.65
51.122	20.95	30.09	0.04	7.73
51.144	27.10	36.24	0.03	7.73
51.167	31.10	40.25	-0.05	7.64
51.190	30.32	39.46	0.07	7.76
51.212	22.81	31.95	-0.05	7.64
51.238	22.91	32.05	0.04	7.73
51.261	25.01	34.15	-0.06	7.64
51.283	24.65	33.79	0.07	7.76
51.306	23.99	33.14	-0.03	7.66
51.328	22.23	31.38	0.02	7.71
51.351	19.92	29.06	0.04	7.74
51.374	17.60	26.74	-0.06	7.63
51.396	15.57	24.71	0.06	7.75
51.419	18.23	27.37	-0.03	7.66
51.442	25.05	34.19	0.02	7.71
51.464	29.91	39.05	0.05	7.75
51.487	31.41	40.55	-0.06	7.63
51.512	26.33	35.48	-0.00	7.69
51.540	21.84	30.98	0.06	7.75
51.562	23.78	32.92	-0.03	7.66
51.585	24.88	34.03	0.01	7.70
51.607	24.47	33.61	0.05	7.75
51.630	23.78	32.93	-0.05	7.64
51.653	21.63	30.77	0.05	7.75
51.675	19.44	28.58	-0.03	7.66
51.698	17.03	26.17	-0.01	7.68
51.721	15.47	24.61	0.06	7.75
51.743	20.53	29.68	-0.05	7.64
51.766	26.99	36.13	0.05	7.74
51.788	31.00	40.14	-0.03	7.67
51.811	30.59	39.73	-0.02	7.67
51.834	24.86	34.00	0.06	7.75
51.856	21.70	30.85	-0.06	7.64
51.879	24.27	33.41	0.04	7.73
51.902	24.85	34.00	-0.02	7.68
51.924	24.26	33.41	-0.03	7.66
51.947	23.45	32.59	0.07	7.76
51.970	21.21	30.36	-0.06	7.64
51.992	18.92	28.06	0.06	7.75
52.021	16.37	25.52	0.04	7.73
52.043	16.02	25.16	-0.00	7.69
52.066	22.50	31.64	-0.04	7.65
52.089	28.27	37.42	0.07	7.76
52.111	31.36	40.50	-0.04	7.65
52.134	29.09	38.24	0.04	7.73
52.156	23.42	32.57	0.00	7.69
52.179	22.28	31.43	-0.05	7.65
52.202	24.72	33.86	0.03	7.72
52.232	24.69	33.83	0.07	7.76
52.254	24.04	33.18	-0.04	7.65
52.277	22.51	31.66	0.03	7.73
52.299	20.17	29.31	0.02	7.71
52.322	17.85	27.00	-0.05	7.64
52.345	15.65	24.79	0.07	7.76
52.367	17.51	26.65	-0.04	7.65
52.390	24.37	33.52	0.03	7.73
52.413	29.41	38.55	0.03	7.73
52.435	31.45	40.59	-0.05	7.64
52.458	27.30	36.45	0.07	7.76
52.480	22.23	31.38	-0.04	7.66
52.503	23.11	32.25	0.03	7.72
52.526	24.81	33.95	0.05	7.74
52.548	24.56	33.70	-0.05	7.64
52.571	23.79	32.94	0.05	7.74
52.600	21.79	30.93	0.06	7.75
52.623	19.62	28.77	-0.03	7.67
52.646	17.29	26.43	0.01	7.70
52.668	15.39	24.53	0.05	7.75
52.691	19.62	28.76	-0.05	7.64
52.713	26.14	35.28	0.06	7.76
52.735	30.57	39.71	-0.03	7.67
52.758	30.78	39.92	-0.00	7.69
52.781	25.40	34.55	0.06	7.75
52.803	21.65	30.79	-0.06	7.63
52.826	23.98	33.13	0.05	7.74
52.848	24.94	34.08	-0.03	7.66
52.871	24.41	33.55	-0.01	7.68
52.894	23.61	32.75	0.06	7.75
52.916	21.43	30.58	-0.05	7.64
52.939	19.23	28.38	0.05	7.74
52.962	16.90	26.05	-0.02	7.67
52.984	15.42	24.57	-0.03	7.66
53.007	20.95	30.09	0.06	7.76
53.029	27.20	36.34	-0.05	7.64
53.052	30.95	40.10	0.04	7.74
53.075	30.28	39.42	-0.01	7.68
53.097	24.30	33.45	0.05	7.74
53.126	21.99	31.13	-0.04	7.65
53.149	24.61	33.75	0.07	7.76
53.171	24.68	33.82	-0.05	7.65
53.194	24.27	33.41	0.04	7.73
53.217	23.15	32.29	0.00	7.69
53.239	20.74	29.89	-0.05	7.64
53.262	18.47	27.62	0.07	7.76
53.284	16.25	25.39	-0.04	7.65
53.307	16.30	25.45	0.04	7.73
53.330	23.16	32.30	-0.03	7.66
53.359	29.18	38.32	0.02	7.71
53.382	31.50	40.64	-0.05	7.64
53.405	27.95	37.09	0.07	7.76
53.427	22.66	31.80	-0.04	7.65
53.450	22.85	31.99	0.04	7.73
53.473	24.91	34.05	0.04	7.73
53.495	24.58	33.72	-0.05	7.64
53.518	23.98	33.13	0.06	7.76
53.540	22.27	31.42	-0.04	7.66
53.563	20.11	29.26	0.03	7.72
53.586	17.77	26.92	0.04	7.74
53.608	15.61	24.75	-0.06	7.63
53.631	18.04	27.18	0.06	7.75
53.654	24.90	34.05	-0.03	7.67
53.676	29.95	39.09	0.02	7.71
53.699	31.65	40.80	0.06	7.75
53.721	26.96	36.10	-0.06	7.63
53.744	22.14	31.29	0.05	7.74
53.767	23.39	32.53	-0.02	7.67
53.789	24.84	33.99	0.00	7.69
53.812	24.58	33.73	0.06	7.75
53.835	23.90	33.04	-0.06	7.64
53.857	22.03	31.17	0.05	7.74
53.880	19.82	28.96	-0.03	7.67
53.908	17.13	26.27	0.01	7.70
53.932	15.41	24.56	-0.02	7.68
53.954	20.16	29.31	0.07	7.76
53.977	26.59	35.73	-0.06	7.64
54.000	30.85	39.99	0.04	7.73
54.022	30.71	39.85	-0.02	7.68
54.045	25.05	34.20	-0.04	7.66
54.068	21.79	30.93	0.07	7.76
54.090	24.23	33.37	-0.05	7.64
54.113	24.88	34.02	0.04	7.73
54.135	24.30	33.44	-0.01	7.69
54.158	23.56	32.71	-0.05	7.65
54.181	21.19	30.33	0.07	7.76
54.203	18.99	28.14	-0.05	7.64
54.226	16.61	25.75	0.06	7.75
54.254	15.86	25.00	0.04	7.73
54.277	22.20	31.34	0.01	7.70
54.300	28.14	37.28	-0.05	7.64
54.322	31.31	40.46	0.07	7.76
54.345	29.27	38.41	-0.04	7.65
54.368	23.66	32.80	0.04	7.73
54.390	22.29	31.43	0.03	7.72
54.413	24.86	34.00	-0.05	7.64
54.435	24.80	33.94	0.06	7.76
54.458	24.14	33.28	-0.03	7.66
54.481	22.71	31.86	0.05	7.75
54.511	20.30	29.44	0.03	7.72
54.533	18.09	27.23	0.05	7.74
54.556	15.84	24.99	-0.06	7.63
54.578	17.34	26.49	0.07	7.76
54.601	24.22	33.36	-0.03	7.66
54.624	29.48	38.62	0.02	7.71
54.646	31.71	40.85	0.06	7.75
54.669	27.61	36.75	-0.06	7.64
54.692	22.43	31.57	0.05	7.74
54.714	23.08	32.22	-0.03	7.67
54.740	24.91	34.05	0.05	7.74
54.769	24.63	33.77	-0.01	7.69
54.792	23.92	33.06	0.06	7.75
54.815	21.91	31.05	-0.06	7.63
54.837	19.74	28.89	0.05	7.74
54.860	17.44	26.59	-0.02	7.67
54.883	15.44	24.58	-0.02	7.67
54.905	19.60	28.74	0.06	7.75
54.928	26.14	35.28	-0.05	7.64
54.951	30.60	39.74	0.04	7.73
54.973	31.08	40.23	-0.02	7.68
54.996	25.73	34.87	-0.04	7.65
55.018	21.92	31.06	0.07	7.76
55.041	24.10	33.24	-0.04	7.65
55.064	24.93	34.08	0.03	7.73
55.086	24.40	33.54	0.00	7.69
55.109	23.62	32.76	-0.05	7.64
55.132	21.55	30.70	0.07	7.76
55.154	19.20	28.35	-0.05	7.64
55.177	16.85	26.00	0.04	7.73
55.199	15.30	24.44	0.02	7.71
55.222	20.69	29.83	-0.05	7.64
55.245	26.96	36.10	0.07	7.76
55.267	31.09	40.23	-0.04	7.65
55.289	30.45	39.60	0.03	7.72
55.312	24.74	33.89	0.04	7.73
55.335	21.89	31.03	0.04	7.73
55.363	24.58	33.72	-0.05	7.64
55.386	24.79	33.94	0.06	7.75
55.408	24.27	33.42	-0.03	7.66
55.431	23.15	32.30	0.02	7.71
55.454	20.82	29.97	0.05	7.75
55.476	18.48	27.63	-0.06	7.63
55.499	16.32	25.46	0.05	7.75
55.522	16.31	25.45	-0.03	7.67
55.544	22.85	32.00	0.00	7.70
55.567	28.57	37.71	0.06	7.75
55.589	31.58	40.72	-0.05	7.64
55.612	28.73	37.87	0.06	7.76
55.642	22.87	32.02	0.05	7.74
55.664	22.83	31.98	-0.02	7.67
55.687	24.90	34.05	-0.02	7.67
55.710	24.68	33.82	0.06	7.76
55.732	24.07	33.21	-0.05	7.64
55.755	22.63	31.78	0.04	7.73
55.778	20.27	29.42	-0.01	7.68
55.800	17.91	27.05	-0.04	7.65
55.823	15.70	24.85	0.07	7.76
55.845	17.92	27.07	-0.04	7.65
55.868	24.88	34.02	0.04	7.73
55.891	29.95	39.09	0.01	7.70
55.913	31.55	40.70	-0.05	7.64
55.936	27.13	36.28	0.07	7.76
55.959	22.15	31.29	-0.05	7.65
55.981	23.39	32.54	0.04	7.73
56.004	25.01	34.15	0.02	7.72
56.026	24.69	33.84	-0.06	7.64
56.049	23.86	33.00	0.07	7.76
56.072	22.19	31.34	-0.04	7.65
56.094	19.91	29.05	0.03	7.72
56.117	17.40	26.54	0.04	7.73
56.140	15.37	24.52	-0.06	7.63
56.162	19.21	28.35	0.07	7.76
56.185	25.82	34.97	-0.03	7.66
56.207	30.51	39.65	0.02	7.71
56.230	31.13	40.28	0.06	7.75
56.253	25.95	35.09	-0.06	7.63
56.275	21.84	30.98	0.06	7.75
56.298	23.77	32.91	-0.03	7.66
56.321	24.73	33.87	0.00	7.69
56.343	24.41	33.55	0.06	7.75
56.366	23.46	32.60	-0.05	7.64
56.388	21.22	30.37	0.05	7.74
56.411	19.04	28.19	-0.03	7.67
56.434	16.59	25.74	0.05	7.75
56.462	15.22	24.37	-0.02	7.67
56.485	21.08	30.22	0.07	7.76
56.507	27.18	36.32	-0.05	7.64
56.530	30.78	39.92	0.04	7.73
56.553	29.64	38.79	-0.01	7.68
56.575	22.07	31.22	0.06	7.75
56.597	22.86	32.01	-0.05	7.64
56.620	24.64	33.78	0.04	7.73
56.642	24.39	33.53	0.00	7.69
56.665	23.69	32.83	-0.05	7.64
56.688	21.69	30.83	0.07	7.76
56.710	19.66	28.80	-0.04	7.65
56.733	17.07	26.21	0.04	7.73
56.759	15.17	24.31	0.03	7.73
56.782	19.29	28.44	0.03	7.72
56.805	25.89	35.03	-0.05	7.64
56.827	30.47	39.61	0.06	7.76
56.850	30.77	39.92	-0.04	7.66
56.872	25.37	34.51	0.03	7.72
56.895	21.49	30.64	0.04	7.73
56.918	23.59	32.74	-0.05	7.64
56.940	24.59	33.73	0.07	7.76
56.963	24.22	33.37	-0.03	7.67
56.986	23.41	32.55	0.01	7.70
57.008	21.17	30.32	0.06	7.75
57.031	19.03	28.17	-0.06	7.63
57.053	16.78	25.92	0.06	7.75
57.076	15.21	24.35	-0.03	7.66
57.099	20.61	29.76	-0.00	7.69
57.121	26.81	35.95	0.06	7.75
57.144	30.80	39.94	-0.06	7.63
57.167	30.13	39.27	0.05	7.74
57.189	24.50	33.65	-0.02	7.67
57.212	21.58	30.73	-0.02	7.67
57.234	24.15	33.29	0.06	7.75
57.257	24.66	33.80	-0.05	7.64
57.280	24.20	33.35	0.04	7.73
57.302	23.18	32.33	-0.01	7.68
57.325	20.76	29.90	-0.04	7.66
57.348	18.55	27.69	0.07	7.76
57.370	16.27	25.42	-0.05	7.64
57.393	15.53	24.67	0.04	7.73
57.415	21.82	30.96	0.00	7.69
57.438	27.76	36.90	-0.05	7.65
57.461	31.14	40.28	0.06	7.76
57.483	29.22	38.37	-0.05	7.65
57.506	23.54	32.69	0.04	7.73
57.536	22.16	31.30	-0.03	7.66
57.561	24.56	33.70	0.02	7.71
57.584	24.59	33.74	-0.05	7.64
57.606	24.01	33.15	0.06	7.76
57.629	22.41	31.55	-0.04	7.66
57.652	20.03	29.17	0.03	7.72
57.674	17.75	26.89	0.04	7.73
57.697	15.57	24.71	-0.05	7.64
57.720	16.92	26.06	0.06	7.75
57.742	23.87	33.02	-0.03	7.66
57.765	29.24	38.38	0.03	7.72
57.788	31.57	40.72	0.05	7.74
57.810	27.66	36.81	-0.06	7.64
57.833	22.43	31.58	0.06	7.75
57.855	22.95	32.10	-0.03	7.66
57.878	24.71	33.86	0.01	7.70
57.901	24.44	33.59	-0.02	7.67
57.924	23.77	32.91	0.00	7.70
57.946	21.54	30.68	0.06	7.75
57.969	19.34	28.49	-0.05	7.64
57.992	17.14	26.28	0.05	7.74
58.014	15.26	24.40	-0.02	7.67
58.037	20.01	29.16	-0.01	7.68
58.059	26.43	35.57	0.06	7.76
58.082	30.61	39.75	-0.05	7.64
58.105	30.68	39.83	0.04	7.74
58.127	25.10	34.25	-0.02	7.67
58.150	21.68	30.83	-0.02	7.67
58.173	24.14	33.29	0.07	7.76
58.195	24.79	33.93	-0.05	7.64
58.218	24.25	33.40	0.04	7.74
58.241	23.39	32.54	-0.01	7.68
58.263	21.32	30.46	-0.04	7.65
58.286	19.12	28.27	0.06	7.76
58.308	16.80	25.94	-0.05	7.64
58.331	15.59	24.73	0.04	7.74
58.354	21.47	30.61	0.01	7.70
58.376	27.55	36.70	-0.05	7.65
58.399	31.31	40.45	0.07	7.76
58.422	30.00	39.14	-0.04	7.65
58.444	24.33	33.47	0.04	7.73
58.467	21.97	31.12	0.02	7.72
58.489	24.60	33.74	-0.05	7.64
58.512	24.90	34.04	0.06	7.76
58.535	24.34	33.48	-0.04	7.66
58.557	23.15	32.29	0.03	7.73
58.580	20.93	30.07	0.03	7.72
58.603	18.55	27.69	-0.05	7.64
58.625	16.40	25.55	0.06	7.76
58.648	16.88	26.02	0.06	7.75
58.678	24.07	33.22	0.06	7.75
58.700	29.39	38.54	-0.03	7.66
58.723	31.68	40.83	0.03	7.72
58.746	27.88	37.02	0.05	7.74
58.768	22.60	31.75	-0.06	7.63
58.791	23.10	32.25	0.06	7.75
58.814	24.87	34.02	-0.03	7.67
58.836	24.66	33.80	0.01	7.70
58.859	24.10	33.24	0.06	7.75
58.881	22.34	31.48	-0.05	7.64
58.904	20.10	29.24	0.05	7.74
58.927	17.72	26.86	-0.03	7.67
58.949	15.78	24.93	-0.00	7.69
58.972	18.56	27.70	0.06	7.75
58.995	25.40	34.55	-0.05	7.64
59.017	30.24	39.38	0.06	7.76
59.047	31.21	40.35	0.05	7.74
59.070	25.98	35.13	-0.02	7.67
59.092	21.75	30.89	-0.02	7.67
59.115	23.97	33.11	0.06	7.76
59.137	24.90	34.05	-0.05	7.64
59.160	24.49	33.64	0.04	7.73
59.183	23.75	32.89	-0.01	7.68
59.205	21.64	30.78	-0.04	7.66
59.228	19.46	28.60	0.06	7.75
59.250	17.17	26.32	-0.05	7.64
59.273	15.60	24.74	0.04	7.73
59.295	20.77	29.92	-0.01	7.69
59.318	27.17	36.31	-0.04	7.65
59.340	31.03	40.17	0.07	7.76
59.363	30.67	39.81	-0.05	7.65
59.386	24.97	34.11	0.04	7.73
59.408	21.98	31.12	0.01	7.70
59.431	24.49	33.64	-0.05	7.65
59.454	25.01	34.16	0.07	7.76
59.476	24.53	33.68	-0.04	7.65
59.499	23.54	32.68	0.04	7.73
59.522	21.24	30.38	0.02	7.72
59.544	19.04	28.18	-0.05	7.64
59.567	16.64	25.79	0.07	7.76
59.589	15.92	25.07	-0.04	7.65
59.612	22.12	31.26	0.04	7.73
59.635	27.98	37.13	0.04	7.73
59.657	31.42	40.56	-0.05	7.64
59.680	29.69	38.83	0.06	7.75
59.703	23.99	33.13	-0.03	7.66
59.725	22.24	31.38	0.03	7.72
59.748	24.72	33.87	0.05	7.74
59.770	24.79	33.93	0.04	7.73
59.799	24.16	33.30	-0.06	7.64
59.822	22.87	32.02	0.06	7.75
59.844	20.59	29.74	-0.03	7.66
59.867	18.20	27.34	0.01	7.71
59.890	15.98	25.12	0.06	7.75
59.912	17.08	26.22	-0.06	7.64
59.935	23.88	33.02	0.06	7.75
59.957	29.41	38.56	-0.03	7.67
59.980	32.28	41.43	0.00	7.69
60.003	33.47	42.61	0.06	7.76
60.025	34.18	43.33	-0.05	7.64
60.048	34.70	43.84	0.06	7.76
60.071	34.98	44.13	-0.01	7.68
60.093	35.05	44.19	0.00	7.70
60.116	35.19	44.34	0.08	7.77
60.138	35.28	44.43	-0.02	7.67
60.168	35.36	44.51	-0.03	7.66
60.191	35.33	44.47	0.07	7.76
60.214	35.35	44.50	-0.00	7.69
60.236	35.31	44.46	-0.01	7.68
60.259	35.39	44.53	0.09	7.78
60.281	35.35	44.49	-0.03	7.66
60.304	35.25	44.40	0.06	7.75
60.327	35.44	44.58	0.01	7.70
60.349	35.38	44.53	-0.02	7.67
60.372	35.26	44.40	0.09	7.78
60.395	35.32	44.46	-0.03	7.67
60.417	35.27	44.41	0.06	7.75
60.440	35.40	44.55	0.03	7.72
60.462	35.37	44.52	-0.02	7.67
60.485	35.28	44.42	0.08	7.78
60.508	35.38	44.52	-0.02	7.67
60.530	35.34	44.49	0.06	7.75
60.553	35.13	44.27	0.06	7.75
60.579	35.32	44.46	0.05	7.75
60.602	35.35	44.49	0.05	7.74
60.625	35.42	44.56	-0.03	7.66
60.647	35.28	44.43	0.09	7.78
60.670	35.34	44.48	-0.02	7.68
60.693	35.42	44.57	0.06	7.75
60.715	35.43	44.58	0.06	7.75
60.738	35.31	44.45	-0.03	7.66
60.760	35.30	44.45	0.08	7.78
60.783	35.37	44.51	-0.01	7.68
60.806	35.36	44.50	0.04	7.74
60.828	35.30	44.44	0.07	7.76
60.851	35.24	44.38	-0.04	7.65
60.874	35.27	44.42	0.08	7.77
60.896	35.33	44.48	-0.03	7.66
60.925	35.38	44.53	-0.01	7.68
60.948	35.32	44.46	0.03	7.72
60.970	35.40	44.54	0.08	7.77
60.993	35.33	44.47	-0.03	7.66
61.015	35.35	44.49	0.08	7.77
61.038	35.30	44.44	-0.01	7.68
61.061	35.42	44.56	0.02	7.71
61.083	35.27	44.41	0.08	7.77
61.106	35.34	44.48	-0.03	7.66
61.129	35.34	44.48	0.07	7.76
61.151	35.36	44.50	-0.00	7.69
61.174	35.46	44.61	0.00	7.70
61.197	35.35	44.50	0.08	7.78
61.219	35.32	44.46	-0.03	7.66
61.242	35.43	44.57	0.06	7.76
61.264	35.38	44.52	0.00	7.69
61.287	35.32	44.46	0.06	7.75
61.317	35.38	44.52	-0.01	7.68
61.339	35.52	44.67	0.09	7.78
61.362	35.48	44.62	-0.02	7.67
61.385	35.36	44.50	0.06	7.75
61.407	35.32	44.47	0.02	7.71
61.430	35.54	44.68	-0.02	7.67
61.453	35.37	44.52	0.09	7.78
61.475	35.45	44.59	-0.02	7.67
61.498	35.45	44.59	0.06	7.75
61.521	35.49	44.64	0.04	7.73
61.543	35.52	44.67	-0.02	7.67
61.566	35.40	44.55	0.09	7.78
61.588	35.36	44.51	-0.02	7.67
61.611	35.50	44.65	0.06	7.75
61.634	35.46	44.61	0.05	7.74
61.656	35.47	44.62	-0.03	7.67
61.679	35.47	44.62	0.09	7.78
61.701	35.57	44.71	-0.01	7.69
61.724	35.58	44.73	0.06	7.75
61.747	35.51	44.66	0.06	7.76
61.769	35.53	44.67	-0.02	7.67
61.792	35.59	44.74	0.09	7.79
61.815	35.43	44.58	-0.01	7.68
61.837	35.39	44.53	0.04	7.74
61.860	35.41	44.55	0.07	7.76
61.887	35.44	44.59	-0.02	7.67
61.910	35.48	44.62	0.08	7.77
61.932	35.38	44.52	-0.01	7.68
61.955	35.58	44.73	0.04	7.73
61.977	35.53	44.68	0.08	7.77
62.000	35.46	44.61	0.05	7.74
62.029	35.54	44.69	-0.03	7.67
62.051	35.62	44.76	0.08	7.77
62.074	35.56	44.70	-0.00	7.69
62.097	35.53	44.67	0.02	7.71
62.119	35.48	44.63	0.08	7.78
62.142	35.54	44.69	-0.03	7.67
62.164	35.48	44.63	0.08	7.77
62.187	35.49	44.64	0.00	7.70
62.210	35.40	44.54	0.00	7.69
62.232	35.49	44.63	0.09	7.78
62.255	35.49	44.63	-0.03	7.67
62.278	35.47	44.61	0.07	7.76
62.300	35.60	44.74	0.01	7.71
62.323	35.62	44.77	-0.01	7.69
62.345	35.76	44.90	0.10	7.79
62.368	35.67	44.82	-0.02	7.67
62.391	35.68	44.82	0.06	7.76
62.413	35.64	44.79	-0.01	7.68
62.443	35.74	44.88	0.03	7.73
62.466	35.77	44.92	-0.01	7.68
62.488	35.65	44.79	0.10	7.79
62.511	35.79	44.93	-0.01	7.68
62.533	35.69	44.84	0.07	7.76
62.556	35.67	44.82	0.04	7.74
62.579	35.67	44.81	-0.02	7.67
62.601	35.78	44.93	0.10	7.79
62.624	35.80	44.94	-0.01	7.68
62.647	35.64	44.78	0.04	7.73
62.669	24.05	33.19	0.02	7.72
62.692	8.62	17.77	-0.05	7.64
62.715	0.40	9.54	0.06	7.76
62.737	-1.87	7.28	-0.04	7.65
62.760	-0.85	8.29	0.03	7.72
62.782	1.32	10.46	0.04	7.73
62.805	2.67	11.81	-0.06	7.64
62.828	2.36	11.50	0.06	7.75
62.850	1.21	10.35	-0.03	7.66
62.873	0.43	9.57	0.02	7.71
62.896	0.48	9.63	0.05	7.74
62.918	1.08	10.22	-0.06	7.63
62.941	1.57	10.72	0.05	7.75
62.963	1.58	10.72	-0.03	7.66
62.986	1.22	10.36	0.01	7.70
63.009	0.89	10.03	0.06	7.75
63.031	0.84	9.98	-0.06	7.63
63.054	1.03	10.18	0.05	7.74
63.077	1.25	10.39	-0.03	7.66
63.109	1.28	10.42	-0.02	7.67
63.132	1.15	10.29	-0.01	7.68
63.154	1.01	10.15	0.05	7.75
63.177	0.98	10.13	-0.06	7.64
63.200	1.05	10.20	0.05	7.74
63.222	1.14	10.29	-0.06	7.64
63.252	1.17	10.31	-0.02	7.67
63.274	1.12	10.27	-0.02	7.67
63.297	1.06	10.20	0.06	7.75
63.319	1.04	10.18	-0.05	7.64
63.341	1.06	10.21	0.04	7.73
63.364	1.10	10.24	-0.02	7.67
63.386	1.12	10.26	-0.04	7.66
63.408	1.10	10.25	0.06	7.75
63.431	1.07	10.22	-0.05	7.64
63.453	1.06	10.21	0.04	7.73
63.475	1.07	10.21	-0.01	7.68
63.498	1.08	10.23	-0.04	7.65
63.521	1.09	10.23	0.06	7.76
63.543	1.06	10.21	0.03	7.72
63.570	1.07	10.22	-0.05	7.64
63.592	1.07	10.21	0.04	7.73
63.615	1.07	10.21	0.00	7.69
63.637	1.07	10.22	-0.05	7.64
63.660	1.08	10.22	0.06	7.76
63.682	1.08	10.22	-0.05	7.64
63.704	1.08	10.22	0.03	7.72
63.727	1.07	10.21	0.01	7.71
63.750	1.06	10.20	0.04	7.73
63.779	1.06	10.21	-0.05	7.64
63.802	1.06	10.20	0.06	7.75
63.824	1.05	10.20	-0.04	7.65
63.847	1.05	10.19	0.03	7.72
63.869	1.04	10.19	0.03	7.72
63.892	1.04	10.18	-0.05	7.64
63.915	1.04	10.18	0.06	7.75
63.937	1.04	10.18	-0.04	7.66
63.960	1.03	10.18	0.02	7.72
63.983	1.03	10.18	0.05	7.74
64.005	1.03	10.18	-0.06	7.64
64.028	1.03	10.18	0.06	7.75
64.050	1.03	10.18	-0.04	7.66
64.073	1.03	10.18	0.01	7.70
64.096	1.03	10.17	0.05	7.74
64.118	1.03	10.17	-0.06	7.63
64.141	1.03	10.17	0.06	7.75
64.164	1.03	10.17	-0.03	7.66
64.186	1.02	10.17	0.00	7.69
64.209	1.03	10.17	0.06	7.75
64.232	1.02	10.17	0.02	7.71
64.260	1.03	10.17	-0.06	7.63
64.283	1.03	10.18	0.05	7.74
64.305	1.04	10.18	-0.03	7.66
64.328	1.04	10.18	-0.01	7.68
64.353	1.03	10.18	-0.05	7.65
64.381	1.04	10.18	0.06	7.75
64.403	1.04	10.18	-0.06	7.64
64.426	1.03	10.18	0.04	7.73
64.449	1.03	10.18	-0.02	7.67
64.471	1.03	10.17	-0.03	7.67
64.494	1.03	10.18	0.06	7.75
64.517	1.03	10.18	-0.05	7.64
64.539	1.03	10.18	0.04	7.73
64.562	1.03	10.17	-0.05	7.64
64.591	1.03	10.17	-0.01	7.68
64.614	1.03	10.18	-0.04	7.65
64.636	1.03	10.17	0.06	7.75
64.659	1.03	10.17	-0.05	7.65
64.682	1.03	10.17	0.04	7.73
64.704	1.00	10.15	-0.04	7.65
64.734	1.05	10.19	-0.00	7.69
64.757	1.05	10.19	-0.05	7.64
64.780	1.05	10.19	0.06	7.75
64.802	0.83	9.98	-0.05	7.64
