Tempo(s)	P0(KPa)	P0+Coluna(KPa)	P1(KPa)	P1+Coluna(KPa)
0.000	0.01	8.55	0.00	7.69
0.030	-0.02	8.53	0.05	7.74
0.052	0.00	8.55	-0.06	7.63
0.082	0.01	8.55	-0.07	7.63
0.104	-0.00	8.54	0.02	7.72
0.127	-0.02	8.53	-0.03	7.66
0.149	-0.02	8.53	-0.05	7.64
0.171	0.00	8.55	0.05	7.75
0.194	0.01	8.55	-0.06	7.63
0.216	-0.00	8.54	0.02	7.72
0.239	0.00	8.55	-0.02	7.67
0.262	0.00	8.55	-0.06	7.64
0.284	0.01	8.55	0.05	7.75
0.307	-0.00	8.54	-0.06	7.63
0.330	-0.01	8.54	0.02	7.72
0.352	-0.00	8.54	-0.05	7.64
0.373	0.00	8.55	-0.06	7.64
0.396	0.01	8.55	0.05	7.74
0.419	0.00	8.55	-0.06	7.63
0.441	0.00	8.55	0.02	7.72
0.464	-0.00	8.54	-0.03	7.67
0.496	-0.00	8.54	0.02	7.72
0.523	0.00	8.55	-0.07	7.63
0.545	0.01	8.55	0.02	7.72
0.568	0.01	8.55	-0.03	7.66
0.591	-0.01	8.54	-0.05	7.64
0.613	0.01	8.55	0.05	7.75
0.636	0.00	8.55	-0.07	7.63
0.659	0.00	8.55	0.02	7.72
0.681	0.01	8.55	-0.03	7.66
0.704	-0.00	8.54	-0.05	7.65
0.726	0.01	8.55	0.04	7.74
0.749	-0.00	8.54	-0.06	7.63
0.771	0.00	8.55	0.02	7.72
0.794	0.01	8.55	-0.05	7.65
0.816	-0.00	8.54	-0.05	7.64
0.838	0.00	8.55	-0.07	7.62
0.862	0.00	8.55	0.04	7.74
0.885	-0.00	8.54	-0.07	7.62
0.907	0.01	8.56	0.03	7.72
0.930	-0.00	8.54	-0.04	7.65
0.953	0.01	8.55	-0.05	7.65
0.975	0.01	8.55	0.05	7.74
0.998	-0.02	8.53	-0.07	7.63
1.020	0.01	8.55	0.03	7.72
1.043	0.00	8.55	-0.04	7.66
1.065	0.00	8.55	-0.04	7.65
1.088	0.01	8.55	0.04	7.74
1.110	-0.00	8.54	-0.06	7.63
1.133	0.01	8.55	0.03	7.72
1.156	0.00	8.55	-0.04	7.66
1.178	0.01	8.55	-0.04	7.65
1.201	-0.01	8.53	0.04	7.74
1.223	-0.00	8.54	-0.07	7.62
1.246	0.01	8.55	0.04	7.73
1.274	-0.01	8.53	0.03	7.73
1.297	0.01	8.55	-0.04	7.65
1.319	0.00	8.55	-0.04	7.65
1.341	0.00	8.55	0.05	7.74
1.364	0.01	8.56	-0.07	7.62
1.386	0.00	8.55	0.04	7.73
1.409	0.01	8.55	-0.05	7.65
1.431	0.00	8.55	-0.04	7.66
1.454	-0.00	8.54	0.00	7.70
1.475	0.01	8.55	-0.07	7.63
1.497	0.00	8.55	0.03	7.73
1.520	0.01	8.55	-0.05	7.65
1.543	0.01	8.55	-0.03	7.66
1.565	0.00	8.55	0.05	7.74
1.588	-0.00	8.54	-0.07	7.62
1.611	0.01	8.56	0.04	7.73
1.633	0.00	8.55	-0.05	7.65
1.656	0.01	8.56	-0.03	7.66
1.678	0.01	8.55	0.04	7.74
1.701	0.00	8.55	-0.07	7.62
1.724	0.01	8.56	0.03	7.73
1.746	0.00	8.55	-0.04	7.65
1.769	0.01	8.56	-0.02	7.67
1.792	0.01	8.55	0.04	7.74
1.815	-0.00	8.54	-0.07	7.63
1.837	0.01	8.56	0.04	7.73
1.859	0.00	8.55	-0.05	7.65
1.882	0.01	8.55	-0.02	7.67
1.905	0.01	8.56	0.04	7.73
1.927	0.00	8.55	-0.07	7.62
1.950	0.01	8.55	0.04	7.73
1.973	0.00	8.55	-0.07	7.62
2.002	0.01	8.56	-0.05	7.65
2.025	0.01	8.56	-0.02	7.67
2.047	-0.00	8.54	0.04	7.73
2.070	0.01	8.55	-0.07	7.62
2.092	0.01	8.55	0.03	7.73
2.115	0.01	8.55	-0.05	7.65
2.138	0.01	8.56	-0.02	7.68
2.160	0.01	8.55	0.04	7.73
2.183	0.01	8.55	-0.07	7.63
2.206	0.00	8.55	0.03	7.73
2.228	0.01	8.55	-0.05	7.64
2.251	0.01	8.56	-0.01	7.68
2.274	0.01	8.55	0.04	7.73
2.296	0.01	8.55	-0.07	7.62
2.319	0.01	8.55	0.04	7.73
2.341	0.01	8.55	-0.05	7.64
2.364	0.01	8.56	-0.01	7.69
2.387	0.01	8.56	0.04	7.73
2.409	0.01	8.55	-0.07	7.62
2.432	0.01	8.55	0.04	7.73
2.455	0.00	8.55	-0.05	7.65
2.477	0.01	8.56	-0.00	7.69
2.500	0.01	8.55	0.03	7.73
2.523	0.01	8.55	-0.07	7.62
2.545	0.01	8.55	0.04	7.73
2.568	-0.01	8.54	-0.06	7.63
2.589	0.01	8.55	0.00	7.70
2.612	0.01	8.55	0.03	7.73
2.634	0.01	8.55	-0.07	7.62
2.657	0.01	8.55	0.04	7.73
2.680	-0.01	8.54	-0.05	7.64
2.702	0.01	8.55	0.00	7.70
2.725	0.01	8.55	0.03	7.72
2.747	0.01	8.55	-0.07	7.62
2.770	0.01	8.55	0.04	7.74
2.793	0.00	8.55	-0.05	7.64
2.815	0.01	8.55	0.01	7.70
2.838	0.01	8.55	0.03	7.72
2.861	0.01	8.56	-0.07	7.62
2.883	0.01	8.55	0.04	7.74
2.906	0.01	8.55	-0.05	7.64
2.929	0.01	8.55	0.01	7.70
2.951	1.32	9.86	0.02	7.71
2.974	12.06	20.61	-0.07	7.63
2.996	19.09	27.64	0.04	7.74
3.019	21.65	30.20	-0.05	7.65
3.042	21.54	30.09	0.01	7.71
3.064	16.51	25.05	0.01	7.71
3.087	13.33	21.87	-0.07	7.63
3.110	16.04	24.58	0.05	7.74
3.132	16.83	25.38	-0.04	7.65
3.159	15.96	24.50	0.05	7.74
3.182	15.19	23.73	-0.05	7.64
3.205	13.27	21.81	0.02	7.71
3.227	11.67	20.22	0.01	7.70
3.250	10.25	18.80	-0.07	7.63
3.272	9.98	18.52	0.05	7.74
3.295	15.81	24.35	-0.06	7.63
3.318	20.51	29.06	0.02	7.72
3.340	22.29	30.83	0.00	7.70
3.363	20.12	28.67	-0.07	7.63
3.386	14.86	23.40	0.05	7.74
3.408	14.28	22.83	-0.06	7.64
3.431	17.07	25.62	0.02	7.72
3.454	16.76	25.30	-0.00	7.69
3.476	16.08	24.63	-0.06	7.63
3.499	14.91	23.46	0.05	7.74
3.521	12.93	21.47	-0.06	7.63
3.544	11.34	19.89	0.02	7.72
3.567	9.92	18.46	-0.01	7.69
3.589	10.70	19.24	-0.06	7.63
3.612	17.13	25.68	0.05	7.74
3.635	21.26	29.80	-0.06	7.63
3.657	22.31	30.86	0.02	7.72
3.680	18.93	27.48	-0.05	7.65
3.701	14.35	22.89	-0.06	7.63
3.723	14.97	23.51	0.05	7.74
3.746	17.23	25.77	-0.06	7.63
3.769	16.67	25.21	0.02	7.72
3.791	16.17	24.71	-0.02	7.67
3.814	14.74	23.29	-0.06	7.64
3.837	13.04	21.59	0.05	7.74
3.859	11.47	20.02	-0.07	7.63
3.882	9.99	18.53	0.03	7.72
3.905	11.87	20.42	-0.03	7.67
3.927	18.15	26.70	-0.05	7.64
3.950	21.69	30.23	0.05	7.74
3.972	22.29	30.84	-0.07	7.63
3.995	18.08	26.63	0.02	7.72
4.018	13.93	22.47	-0.04	7.66
4.040	15.68	24.23	-0.05	7.65
4.063	17.36	25.91	0.04	7.74
4.086	16.65	25.19	-0.07	7.63
4.108	16.08	24.62	0.03	7.72
4.131	14.57	23.12	-0.04	7.65
4.154	12.75	21.29	-0.04	7.65
4.176	11.20	19.75	0.05	7.74
4.199	9.88	18.42	-0.07	7.62
4.221	13.15	21.70	0.03	7.72
4.244	19.45	27.99	0.02	7.71
4.268	22.34	30.88	-0.05	7.65
4.291	21.66	30.20	-0.03	7.66
4.314	16.61	25.15	0.05	7.74
4.336	13.88	22.43	-0.07	7.62
4.359	16.63	25.18	0.03	7.73
4.382	17.26	25.81	-0.05	7.65
4.404	16.39	24.94	-0.03	7.67
4.427	15.86	24.40	0.04	7.73
4.451	13.88	22.43	-0.07	7.63
4.472	11.97	20.51	0.04	7.73
4.495	10.43	18.98	-0.05	7.64
4.517	9.59	18.14	-0.02	7.68
4.540	14.59	23.13	0.04	7.74
4.563	19.89	28.43	-0.07	7.63
4.585	21.92	30.47	0.04	7.73
4.608	20.22	28.76	-0.05	7.65
4.631	15.22	23.76	-0.01	7.69
4.653	13.79	22.34	0.04	7.73
4.676	16.65	25.19	-0.07	7.62
4.699	16.67	25.22	0.04	7.73
4.721	15.83	24.38	-0.05	7.65
4.744	15.11	23.65	-0.00	7.69
4.766	13.19	21.74	-0.02	7.67
4.787	11.69	20.23	-0.07	7.62
4.810	10.29	18.83	0.04	7.73
4.833	10.27	18.82	-0.05	7.64
4.855	16.22	24.77	0.01	7.70
4.878	20.71	29.25	0.03	7.72
4.901	22.51	31.06	-0.07	7.62
4.923	19.85	28.39	0.04	7.74
4.946	14.82	23.37	-0.05	7.64
4.969	14.65	23.19	0.01	7.71
4.991	17.24	25.78	0.02	7.72
5.014	16.89	25.44	-0.07	7.62
5.036	16.25	24.79	0.05	7.74
5.059	15.17	23.71	-0.05	7.64
5.082	13.25	21.80	0.01	7.71
5.104	11.62	20.17	0.02	7.71
5.127	10.14	18.69	-0.07	7.63
5.150	11.28	19.83	0.05	7.74
5.172	17.48	26.02	-0.05	7.64
5.195	21.48	30.03	0.02	7.72
5.218	22.56	31.11	0.01	7.70
5.240	18.89	27.44	-0.06	7.63
5.263	14.28	22.83	0.05	7.74
5.285	15.18	23.72	-0.05	7.64
5.308	17.30	25.84	0.02	7.71
5.331	16.71	25.26	0.00	7.69
5.353	16.15	24.69	-0.06	7.63
5.376	14.70	23.24	-0.01	7.68
5.405	12.66	21.21	0.05	7.74
5.428	11.07	19.62	-0.06	7.63
5.450	9.74	18.28	0.02	7.72
5.473	12.88	21.42	-0.01	7.68
5.495	18.92	27.47	-0.06	7.63
5.518	22.06	30.61	0.05	7.74
5.541	22.00	30.54	-0.06	7.63
5.563	17.20	25.75	0.02	7.72
5.586	13.77	22.32	-0.02	7.67
5.609	16.15	24.69	-0.06	7.63
5.631	17.22	25.76	0.05	7.74
5.654	16.51	25.05	-0.06	7.63
5.677	15.82	24.36	0.03	7.72
5.699	14.07	22.61	-0.03	7.67
5.722	12.33	20.88	-0.05	7.64
5.744	10.90	19.44	0.05	7.74
5.777	10.45	19.00	-0.07	7.62
5.805	16.88	25.43	-0.04	7.66
5.828	21.04	29.59	-0.05	7.65
5.850	22.45	30.99	0.05	7.74
5.873	19.30	27.85	-0.07	7.62
5.896	14.17	22.72	-0.03	7.66
5.922	15.28	23.83	0.02	7.72
5.945	17.24	25.79	-0.04	7.66
5.967	16.72	25.27	-0.04	7.65
5.990	16.17	24.71	0.05	7.74
6.012	14.63	23.17	-0.07	7.63
6.035	12.75	21.29	0.03	7.73
6.058	11.22	19.77	-0.05	7.65
6.080	9.82	18.37	-0.03	7.67
6.103	12.49	21.03	0.04	7.73
6.126	18.65	27.20	-0.07	7.62
6.148	21.65	30.19	0.03	7.73
6.171	21.97	30.51	-0.05	7.65
6.193	17.56	26.11	-0.02	7.67
6.216	13.88	22.43	0.04	7.73
6.239	15.85	24.40	-0.07	7.63
6.261	17.18	25.73	0.04	7.73
6.284	16.57	25.12	-0.05	7.65
6.307	15.94	24.48	-0.01	7.68
6.329	14.37	22.92	0.04	7.73
6.352	12.48	21.02	-0.07	7.62
6.375	11.02	19.56	0.04	7.73
6.397	9.72	18.27	-0.05	7.65
6.420	13.65	22.20	0.00	7.69
6.442	19.46	28.01	0.04	7.73
6.465	22.14	30.69	-0.07	7.62
6.488	21.62	30.16	0.04	7.73
6.510	16.44	24.99	-0.07	7.62
6.539	13.93	22.48	-0.05	7.65
6.562	16.74	25.28	0.00	7.70
6.585	17.18	25.73	0.03	7.72
6.607	16.49	25.04	-0.07	7.62
6.630	15.57	24.11	0.04	7.74
6.653	13.59	22.13	-0.05	7.65
6.675	11.90	20.45	0.01	7.70
6.698	10.43	18.97	0.02	7.72
6.721	9.94	18.49	-0.07	7.63
6.743	15.66	24.21	0.05	7.74
6.766	20.48	29.02	-0.05	7.65
6.788	22.40	30.95	0.01	7.71
6.811	20.60	29.14	0.01	7.71
6.834	15.42	23.97	-0.07	7.63
6.856	14.34	22.89	0.05	7.74
6.879	17.07	25.62	-0.05	7.64
6.902	17.03	25.57	0.02	7.71
6.924	16.38	24.93	0.01	7.70
6.947	15.28	23.83	-0.07	7.63
6.970	13.32	21.86	0.05	7.74
6.992	11.63	20.18	-0.07	7.62
7.013	10.31	18.85	0.02	7.71
7.036	10.67	19.22	0.00	7.69
7.059	16.84	25.39	-0.07	7.63
7.081	21.16	29.70	0.05	7.74
7.104	22.32	30.86	-0.06	7.63
7.130	18.29	26.83	0.05	7.74
7.152	13.92	22.47	-0.06	7.64
7.175	15.65	24.20	0.02	7.72
7.198	17.27	25.82	-0.01	7.68
7.220	16.56	25.10	-0.06	7.63
7.243	16.03	24.58	0.04	7.74
7.266	14.51	23.05	-0.06	7.63
7.288	12.74	21.28	0.02	7.72
7.311	11.17	19.71	-0.02	7.68
7.333	9.65	18.20	-0.06	7.64
7.356	12.91	21.46	0.05	7.74
7.379	18.98	27.53	-0.06	7.63
7.401	22.11	30.66	0.02	7.72
7.424	22.06	30.60	-0.03	7.67
7.447	17.15	25.70	-0.06	7.64
7.469	13.72	22.27	0.05	7.74
7.492	16.11	24.66	-0.07	7.63
7.514	17.18	25.72	0.03	7.72
7.537	16.56	25.10	-0.03	7.66
7.560	15.83	24.38	-0.05	7.64
7.582	13.97	22.52	0.05	7.74
7.605	12.38	20.93	-0.07	7.63
7.628	10.78	19.33	0.04	7.74
7.657	9.83	18.37	0.03	7.72
7.679	14.98	23.52	-0.04	7.65
7.702	20.21	28.75	-0.04	7.65
7.725	22.32	30.87	0.05	7.74
7.747	20.89	29.43	-0.07	7.63
7.770	15.82	24.36	0.03	7.72
7.793	14.07	22.62	-0.04	7.65
7.815	16.90	25.44	-0.04	7.66
7.838	17.09	25.64	0.05	7.74
7.860	16.46	25.01	-0.07	7.62
7.883	15.41	23.95	0.03	7.72
7.906	13.51	22.05	-0.05	7.65
7.928	11.92	20.46	-0.03	7.66
7.951	10.37	18.92	0.04	7.73
7.974	10.27	18.81	-0.07	7.63
7.996	16.15	24.70	0.03	7.73
8.019	20.81	29.35	-0.05	7.65
8.042	22.57	31.12	-0.02	7.67
8.064	20.07	28.61	0.04	7.73
8.087	14.96	23.51	-0.07	7.62
8.109	14.41	22.95	0.05	7.74
8.131	17.15	25.70	-0.05	7.65
8.153	16.87	25.41	-0.02	7.68
8.176	16.25	24.79	0.04	7.73
8.198	15.13	23.68	-0.07	7.63
8.221	13.19	21.74	0.03	7.73
8.244	11.55	20.10	-0.05	7.64
8.266	10.21	18.75	-0.01	7.68
8.289	11.02	19.56	0.04	7.73
8.312	17.33	25.88	-0.07	7.62
8.334	21.33	29.88	0.04	7.73
8.357	22.46	31.01	-0.05	7.64
8.380	19.09	27.64	-0.00	7.69
8.402	14.24	22.78	0.04	7.73
8.426	14.99	23.54	-0.06	7.63
8.447	17.20	25.75	0.04	7.73
8.470	16.71	25.25	-0.05	7.64
8.493	16.15	24.69	0.00	7.69
8.515	14.66	23.21	0.03	7.72
8.538	12.87	21.41	-0.08	7.62
8.561	11.37	19.92	0.04	7.73
8.583	9.91	18.45	-0.05	7.64
8.606	11.98	20.53	0.01	7.70
8.628	18.20	26.75	0.03	7.72
8.651	21.73	30.28	-0.07	7.63
8.674	22.21	30.76	0.04	7.74
8.696	18.00	26.54	-0.05	7.64
8.719	13.97	22.52	0.01	7.70
8.742	15.79	24.33	0.02	7.72
8.764	17.23	25.78	0.04	7.73
8.791	16.51	25.06	-0.07	7.62
8.814	15.98	24.53	0.04	7.74
8.837	14.05	22.60	-0.06	7.64
8.859	12.47	21.01	0.01	7.71
8.882	10.97	19.51	0.01	7.70
8.904	9.78	18.33	-0.07	7.63
8.927	13.98	22.53	0.04	7.74
8.950	19.61	28.15	-0.06	7.64
8.972	22.25	30.79	0.02	7.71
8.995	21.67	30.21	0.00	7.70
9.018	16.51	25.05	-0.06	7.63
9.040	13.91	22.46	0.05	7.74
9.063	16.62	25.17	-0.06	7.64
9.085	17.13	25.67	0.02	7.71
9.108	16.55	25.09	-0.00	7.69
9.131	15.69	24.24	-0.06	7.63
9.153	13.80	22.34	0.05	7.74
9.176	12.21	20.75	-0.06	7.63
9.199	10.71	19.25	0.02	7.72
9.221	9.96	18.50	-0.05	7.65
9.242	15.28	23.82	-0.06	7.63
9.265	20.32	28.86	0.05	7.74
9.288	22.50	31.05	-0.06	7.64
9.310	20.85	29.40	0.02	7.72
9.333	15.62	24.17	-0.02	7.68
9.356	14.11	22.66	-0.06	7.64
9.378	16.95	25.49	0.05	7.74
9.401	16.99	25.53	-0.06	7.63
9.423	16.38	24.92	0.02	7.72
9.446	15.50	24.05	-0.03	7.67
9.469	13.53	22.08	-0.06	7.63
9.491	11.89	20.43	0.05	7.74
9.514	10.43	18.98	-0.06	7.63
9.537	10.44	18.99	0.03	7.72
9.559	16.50	25.05	-0.03	7.66
9.582	20.94	29.49	-0.05	7.64
9.605	22.63	31.18	0.05	7.74
9.627	19.87	28.41	-0.07	7.62
9.650	14.81	23.36	0.03	7.72
9.672	14.61	23.15	-0.04	7.66
9.695	17.27	25.82	-0.05	7.65
9.718	16.98	25.53	0.05	7.74
9.742	16.30	24.84	-0.07	7.62
9.763	15.04	23.59	0.03	7.72
9.786	13.16	21.70	-0.04	7.65
9.808	11.52	20.06	-0.04	7.65
9.831	10.10	18.65	0.04	7.74
9.854	11.23	19.78	-0.07	7.63
9.876	17.55	26.10	0.03	7.73
9.899	21.43	29.98	-0.07	7.63
9.928	22.30	30.84	-0.05	7.65
9.951	18.35	26.89	-0.03	7.67
9.973	14.02	22.56	0.04	7.73
9.996	15.59	24.14	-0.07	7.62
10.019	17.25	25.79	0.03	7.73
10.041	16.70	25.25	-0.05	7.64
10.064	16.12	24.67	-0.02	7.68
10.086	14.46	23.00	0.04	7.74
10.109	12.71	21.25	-0.07	7.62
10.132	11.20	19.75	0.03	7.73
10.154	9.80	18.34	-0.05	7.64
10.177	12.99	21.54	-0.01	7.69
10.200	19.06	27.60	0.04	7.73
10.222	22.12	30.67	-0.07	7.62
10.245	21.97	30.51	0.03	7.73
10.268	17.22	25.77	-0.05	7.65
10.290	13.73	22.27	0.00	7.69
10.313	16.22	24.77	0.03	7.73
10.335	17.24	25.79	-0.05	7.64
10.356	16.53	25.08	0.04	7.73
10.379	15.97	24.52	-0.05	7.65
10.402	14.17	22.71	0.00	7.70
10.424	12.47	21.02	0.03	7.72
10.447	10.96	19.50	-0.07	7.62
10.469	9.76	18.30	0.04	7.74
10.492	14.26	22.81	-0.05	7.64
10.515	19.83	28.38	0.01	7.70
10.537	22.34	30.89	0.02	7.71
10.560	21.37	29.92	-0.07	7.62
10.583	16.37	24.91	0.05	7.74
10.605	13.96	22.50	-0.05	7.64
10.628	16.64	25.19	0.01	7.71
10.651	17.10	25.65	0.01	7.71
10.673	16.52	25.06	-0.07	7.62
10.696	15.66	24.21	0.05	7.74
10.718	13.75	22.30	-0.06	7.64
10.741	12.11	20.66	0.02	7.71
10.764	10.64	19.19	0.00	7.70
10.786	10.04	18.58	-0.07	7.63
10.809	15.53	24.07	0.05	7.74
10.832	20.46	29.00	-0.06	7.64
10.854	22.41	30.95	0.02	7.72
10.877	20.54	29.08	0.00	7.69
10.900	15.41	23.95	-0.06	7.63
10.922	14.22	22.76	0.05	7.74
10.945	17.07	25.61	-0.06	7.63
10.967	17.00	25.55	0.02	7.72
10.990	16.39	24.93	-0.01	7.68
11.013	15.28	23.83	-0.06	7.63
11.035	12.77	21.32	-0.07	7.62
11.057	11.04	19.59	0.04	7.74
11.086	9.83	18.38	0.02	7.71
11.109	13.84	22.39	-0.01	7.68
11.132	19.64	28.18	-0.06	7.63
11.154	22.32	30.86	0.05	7.74
11.177	21.67	30.22	-0.06	7.63
11.199	16.67	25.21	0.02	7.72
11.222	13.81	22.36	-0.02	7.68
11.245	16.41	24.95	-0.06	7.64
11.267	17.17	25.72	0.05	7.74
11.290	16.57	25.12	-0.06	7.63
11.313	15.77	24.32	0.02	7.72
11.335	13.88	22.42	-0.03	7.66
11.358	12.31	20.86	-0.06	7.63
11.381	10.77	19.31	0.05	7.74
11.403	9.93	18.47	-0.06	7.63
11.426	15.26	23.80	0.04	7.73
11.447	20.33	28.88	-0.03	7.66
11.469	22.53	31.07	-0.05	7.64
11.492	20.90	29.44	0.04	7.74
11.515	15.81	24.35	-0.07	7.63
11.537	14.08	22.63	0.02	7.72
11.560	16.82	25.36	-0.04	7.66
11.583	17.02	25.57	-0.05	7.65
11.605	16.36	24.91	0.04	7.74
11.628	15.53	24.08	-0.07	7.62
11.650	13.57	22.12	0.02	7.72
11.673	11.95	20.49	-0.04	7.66
11.696	10.41	18.95	-0.05	7.64
11.718	10.26	18.81	0.04	7.74
11.741	16.26	24.80	-0.07	7.63
11.764	20.91	29.45	0.03	7.72
11.786	22.58	31.13	-0.04	7.66
11.809	19.98	28.53	-0.04	7.65
11.832	14.94	23.49	0.04	7.74
11.854	14.54	23.08	-0.07	7.62
11.877	17.24	25.78	0.03	7.72
11.899	16.95	25.49	-0.05	7.65
11.922	16.36	24.90	-0.04	7.66
11.945	14.91	23.45	0.04	7.74
11.967	13.05	21.60	-0.07	7.62
11.990	11.54	20.09	0.03	7.72
12.013	10.09	18.63	-0.04	7.65
12.035	11.09	19.63	-0.04	7.66
12.058	17.43	25.98	0.04	7.74
12.081	21.31	29.85	-0.07	7.62
12.103	22.51	31.06	0.03	7.72
12.126	19.11	27.65	-0.05	7.65
12.148	14.04	22.59	-0.06	7.63
12.169	15.53	24.08	-0.03	7.66
12.191	17.37	25.91	0.04	7.73
12.214	16.81	25.36	-0.07	7.63
12.237	16.32	24.87	0.03	7.73
12.259	14.55	23.09	-0.04	7.65
12.282	12.71	21.25	-0.03	7.66
12.305	11.12	19.67	0.04	7.74
12.327	9.78	18.33	-0.07	7.62
12.350	12.83	21.38	0.03	7.73
12.373	19.15	27.70	-0.07	7.62
12.401	22.21	30.76	-0.04	7.65
12.424	21.78	30.33	-0.02	7.67
12.446	16.76	25.31	0.04	7.73
12.469	13.92	22.47	-0.07	7.62
12.492	16.48	25.03	0.04	7.73
12.514	17.17	25.72	-0.06	7.64
12.535	16.51	25.06	-0.03	7.67
12.558	15.77	24.32	0.04	7.74
12.581	13.90	22.45	-0.07	7.62
12.603	12.28	20.82	0.03	7.73
12.626	10.79	19.33	-0.05	7.65
12.649	9.85	18.40	-0.02	7.67
12.671	14.86	23.41	0.04	7.73
12.694	20.21	28.75	-0.07	7.62
12.716	22.56	31.11	0.03	7.73
12.739	21.22	29.77	-0.05	7.65
12.762	15.95	24.49	-0.03	7.67
12.784	14.09	22.63	0.04	7.74
12.807	16.92	25.47	-0.07	7.62
12.830	17.16	25.71	0.03	7.73
12.852	16.51	25.05	-0.05	7.65
12.875	15.50	24.04	-0.02	7.67
12.898	13.63	22.17	0.04	7.73
12.920	11.91	20.46	-0.07	7.62
12.943	10.41	18.95	0.03	7.73
12.965	10.19	18.73	-0.05	7.65
12.988	16.11	24.65	-0.02	7.67
13.011	20.73	29.27	0.04	7.73
13.033	22.56	31.10	-0.07	7.62
13.056	20.21	28.76	0.04	7.73
13.079	15.12	23.67	-0.05	7.65
13.101	14.43	22.98	-0.02	7.67
13.124	17.11	25.66	0.04	7.74
13.147	17.02	25.57	-0.07	7.62
13.169	16.29	24.83	0.03	7.73
13.192	15.13	23.67	-0.05	7.65
13.214	13.26	21.80	-0.02	7.67
13.237	11.66	20.21	0.04	7.73
13.260	10.27	18.82	-0.07	7.62
13.282	11.00	19.55	0.05	7.74
13.312	17.71	26.26	0.04	7.73
13.335	21.67	30.22	-0.05	7.65
13.357	22.47	31.02	-0.02	7.67
13.380	18.67	27.21	0.04	7.74
13.403	14.16	22.70	-0.07	7.63
13.425	15.35	23.89	0.04	7.73
13.448	17.29	25.84	-0.04	7.65
13.470	16.81	25.35	-0.02	7.67
13.493	16.21	24.75	0.04	7.73
13.516	14.59	23.14	-0.07	7.62
13.538	12.54	21.09	0.00	7.69
13.567	11.06	19.61	-0.07	7.62
13.589	9.76	18.31	0.03	7.73
13.612	14.16	22.70	-0.05	7.65
13.635	19.83	28.37	-0.02	7.68
13.657	22.44	30.99	0.04	7.73
13.680	21.67	30.21	-0.07	7.62
13.703	16.46	25.00	0.04	7.73
13.725	13.93	22.47	-0.07	7.62
13.755	16.89	25.44	-0.05	7.64
13.777	17.08	25.62	-0.02	7.68
13.800	16.49	25.04	0.04	7.73
13.822	15.58	24.13	-0.07	7.62
13.845	13.55	22.09	0.03	7.73
13.868	11.96	20.50	-0.05	7.64
13.890	10.47	19.01	-0.02	7.68
13.913	10.18	18.73	0.04	7.73
13.936	16.06	24.60	-0.07	7.62
13.958	20.81	29.36	0.04	7.73
13.981	22.49	31.04	-0.05	7.64
14.003	20.12	28.66	-0.01	7.68
14.026	15.05	23.59	0.04	7.73
14.049	14.41	22.95	-0.06	7.63
14.071	17.13	25.67	0.04	7.73
14.094	17.00	25.55	-0.05	7.64
14.117	16.30	24.85	-0.01	7.68
14.139	15.11	23.65	0.03	7.73
14.162	13.20	21.75	-0.07	7.63
14.184	11.76	20.30	0.04	7.73
14.207	10.14	18.68	-0.05	7.64
14.230	10.97	19.52	-0.01	7.68
14.252	17.16	25.71	0.03	7.73
14.275	21.20	29.74	-0.07	7.63
14.298	22.57	31.12	0.03	7.73
14.320	19.27	27.82	-0.05	7.64
14.343	14.45	22.99	-0.01	7.68
14.365	15.00	23.55	0.04	7.73
14.388	17.21	25.75	-0.07	7.62
14.411	16.75	25.29	0.04	7.74
14.441	16.13	24.67	0.04	7.73
14.463	14.46	23.00	-0.05	7.64
14.486	12.80	21.34	-0.00	7.69
14.508	11.27	19.81	0.03	7.73
14.531	9.76	18.30	-0.07	7.62
14.554	12.67	21.22	0.04	7.73
14.576	18.75	27.30	-0.05	7.65
14.599	21.92	30.47	-0.00	7.69
14.622	22.17	30.72	0.03	7.73
14.644	17.55	26.09	-0.07	7.62
14.667	13.90	22.44	0.01	7.71
14.695	16.33	24.88	0.04	7.74
14.718	17.15	25.70	-0.05	7.64
14.746	16.48	25.02	0.05	7.74
14.773	15.63	24.18	0.00	7.69
14.796	13.73	22.28	0.03	7.72
14.818	12.07	20.62	-0.08	7.62
14.841	10.65	19.19	0.04	7.73
14.864	9.99	18.54	-0.05	7.65
14.886	15.35	23.90	0.00	7.70
14.909	20.45	29.00	0.03	7.72
14.932	22.58	31.13	-0.07	7.63
14.954	20.68	29.22	0.04	7.73
14.977	15.47	24.02	-0.05	7.64
15.000	14.11	22.66	0.00	7.70
15.022	16.97	25.51	0.02	7.72
15.045	17.05	25.60	-0.07	7.62
15.067	16.40	24.95	0.03	7.72
15.097	15.02	23.57	0.04	7.74
15.119	13.12	21.67	-0.05	7.64
15.142	11.58	20.12	0.01	7.70
15.165	10.17	18.72	0.02	7.72
15.187	11.00	19.54	-0.07	7.62
15.210	17.23	25.78	0.04	7.74
15.233	21.18	29.73	-0.05	7.65
15.255	22.39	30.94	0.01	7.70
15.278	19.16	27.70	0.02	7.71
15.300	14.36	22.90	-0.07	7.62
15.323	14.92	23.47	0.04	7.74
15.346	17.19	25.74	-0.05	7.64
15.368	16.81	25.36	0.01	7.71
15.391	16.20	24.75	0.01	7.71
15.414	14.64	23.18	-0.07	7.63
15.436	12.88	21.42	0.04	7.73
15.459	11.34	19.89	-0.05	7.64
15.481	9.94	18.48	0.02	7.71
15.504	11.87	20.41	-0.01	7.69
15.526	18.20	26.74	-0.07	7.63
15.549	21.93	30.48	-0.07	7.63
15.573	22.11	30.65	0.04	7.74
15.595	17.54	26.08	-0.05	7.64
15.617	13.76	22.30	0.02	7.71
15.640	16.00	24.55	-0.00	7.69
15.662	17.37	25.92	-0.06	7.63
15.684	16.50	25.05	0.04	7.74
15.707	16.03	24.57	-0.06	7.64
15.729	14.23	22.77	0.02	7.72
15.751	12.53	21.08	-0.00	7.69
15.774	11.02	19.56	-0.07	7.63
15.797	9.89	18.44	-0.04	7.66
15.825	15.83	24.38	0.03	7.72
15.852	20.93	29.48	-0.06	7.63
15.875	22.61	31.15	0.04	7.74
15.898	20.22	28.77	-0.06	7.63
15.920	15.04	23.59	0.02	7.72
15.943	14.51	23.05	-0.01	7.68
15.965	17.17	25.71	-0.06	7.63
15.988	16.99	25.53	0.04	7.74
16.011	16.46	25.01	-0.06	7.63
16.033	15.19	23.74	0.02	7.72
16.056	13.26	21.80	-0.02	7.67
16.079	11.22	19.77	-0.07	7.63
16.108	9.85	18.40	-0.06	7.63
16.131	13.73	22.28	0.02	7.72
16.153	19.48	28.03	-0.03	7.67
16.176	22.24	30.79	-0.06	7.64
16.199	21.88	30.42	0.05	7.74
16.221	16.82	25.36	-0.07	7.62
16.244	13.93	22.48	0.03	7.72
16.267	16.54	25.08	-0.04	7.66
16.289	17.26	25.80	-0.05	7.65
16.312	16.55	25.09	0.04	7.74
16.334	15.78	24.33	-0.07	7.63
16.357	13.91	22.46	0.02	7.72
16.380	12.30	20.84	-0.04	7.65
16.402	10.77	19.32	0.03	7.72
16.432	10.10	18.65	-0.04	7.65
16.454	15.72	24.26	0.04	7.74
16.477	20.60	29.15	-0.07	7.62
16.500	22.72	31.27	0.03	7.72
16.522	20.61	29.16	-0.05	7.65
16.545	15.28	23.83	-0.04	7.66
16.567	14.40	22.94	0.04	7.74
16.590	17.10	25.64	-0.07	7.62
16.613	17.08	25.63	0.03	7.73
16.635	16.48	25.02	-0.05	7.65
16.658	15.34	23.89	-0.03	7.67
16.680	13.46	22.00	0.04	7.73
16.703	11.85	20.40	-0.08	7.62
16.726	10.25	18.80	0.04	7.73
16.756	11.23	19.78	0.04	7.73
16.778	17.55	26.10	-0.05	7.64
16.801	21.51	30.05	-0.01	7.69
16.823	22.66	31.21	0.04	7.73
16.846	19.01	27.56	-0.07	7.63
16.869	14.47	23.02	0.03	7.73
16.891	15.23	23.77	-0.05	7.64
16.914	17.35	25.89	0.05	7.74
16.942	16.66	25.21	-0.00	7.69
16.965	16.17	24.71	0.03	7.72
16.988	14.57	23.12	-0.07	7.62
17.010	12.77	21.32	0.04	7.73
17.033	11.23	19.77	-0.05	7.64
17.056	9.84	18.38	0.00	7.70
17.078	13.04	21.59	0.03	7.72
17.101	19.15	27.69	-0.07	7.62
17.123	22.12	30.67	0.04	7.74
17.146	21.99	30.54	-0.05	7.64
17.169	17.36	25.90	0.01	7.70
17.191	13.87	22.42	0.02	7.71
17.214	16.28	24.83	-0.07	7.62
17.236	17.38	25.92	0.05	7.74
17.259	16.68	25.22	-0.06	7.64
17.282	15.99	24.53	0.01	7.71
17.304	14.16	22.71	0.01	7.70
17.327	12.37	20.91	-0.07	7.62
17.350	10.90	19.45	0.04	7.74
17.372	9.83	18.37	-0.06	7.64
17.395	14.24	22.79	0.02	7.72
17.417	19.80	28.34	0.00	7.70
17.440	22.39	30.94	-0.07	7.63
17.463	21.68	30.23	0.04	7.74
17.485	16.49	25.03	-0.06	7.63
17.508	14.00	22.54	0.02	7.71
17.531	16.79	25.33	-0.01	7.69
17.553	17.28	25.83	-0.07	7.63
17.576	16.60	25.14	0.05	7.74
17.598	15.82	24.36	-0.07	7.63
17.621	13.85	22.39	0.02	7.71
17.644	12.19	20.74	-0.02	7.68
17.666	10.73	19.27	-0.07	7.63
17.689	10.08	18.63	0.04	7.74
17.712	15.58	24.12	-0.06	7.63
17.734	20.65	29.19	0.03	7.72
17.756	22.70	31.25	-0.02	7.67
17.779	20.86	29.40	-0.06	7.63
17.802	15.59	24.13	0.05	7.74
17.824	14.34	22.88	-0.06	7.63
17.847	17.11	25.65	0.04	7.74
17.877	17.01	25.55	0.02	7.72
17.899	16.31	24.85	-0.03	7.66
17.922	15.13	23.68	-0.05	7.64
17.944	13.34	21.88	0.04	7.74
17.967	11.82	20.36	-0.07	7.62
17.990	10.27	18.82	0.02	7.72
18.012	11.33	19.88	-0.07	7.62
18.041	17.98	26.52	-0.04	7.66
18.063	21.78	30.33	-0.05	7.65
18.086	22.57	31.11	0.04	7.74
18.109	18.54	27.09	-0.07	7.62
18.131	14.13	22.68	0.02	7.72
18.154	15.50	24.05	-0.04	7.65
18.177	17.30	25.84	-0.04	7.65
18.199	16.85	25.39	0.04	7.74
18.222	16.25	24.80	-0.07	7.62
18.244	14.58	23.13	0.03	7.73
18.267	12.82	21.37	-0.04	7.65
18.290	11.32	19.86	-0.03	7.66
18.312	9.81	18.36	0.04	7.74
18.335	12.88	21.43	-0.07	7.62
18.358	18.95	27.49	0.03	7.73
18.380	22.07	30.61	-0.04	7.65
18.403	22.31	30.85	-0.02	7.67
18.425	17.63	26.17	0.04	7.73
18.448	13.93	22.48	-0.07	7.62
18.471	16.18	24.73	0.04	7.73
18.493	17.42	25.96	-0.05	7.64
18.516	16.73	25.27	-0.02	7.68
18.539	15.96	24.50	0.04	7.73
18.561	14.22	22.77	-0.07	7.62
18.584	12.58	21.13	0.03	7.73
18.606	11.05	19.60	-0.05	7.64
18.629	9.82	18.37	-0.02	7.68
18.652	14.03	22.58	0.04	7.73
18.674	19.73	28.28	-0.07	7.62
18.697	22.52	31.06	0.04	7.73
18.720	21.69	30.24	-0.05	7.64
18.742	16.60	25.14	-0.00	7.69
18.765	13.93	22.48	0.03	7.73
18.787	16.61	25.15	-0.07	7.62
18.810	17.22	25.76	0.04	7.73
18.833	16.56	25.10	-0.05	7.64
18.855	15.78	24.33	-0.00	7.69
18.878	13.88	22.42	0.03	7.73
18.901	12.18	20.72	-0.07	7.62
18.923	10.76	19.31	0.04	7.73
18.946	9.99	18.54	-0.05	7.64
18.968	15.32	23.87	0.00	7.70
18.991	20.43	28.98	0.03	7.72
19.014	22.53	31.07	-0.01	7.68
19.043	20.32	28.87	-0.07	7.62
19.066	15.21	23.75	0.04	7.74
19.089	14.49	23.04	-0.07	7.62
19.118	17.19	25.74	-0.05	7.64
19.141	16.75	25.29	0.04	7.73
19.167	16.30	24.85	0.01	7.70
19.190	14.84	23.39	0.02	7.71
19.213	13.11	21.66	-0.07	7.62
19.235	11.55	20.10	0.04	7.74
19.258	10.12	18.67	-0.05	7.64
19.280	12.34	20.89	0.01	7.70
19.303	18.52	27.06	0.02	7.72
19.326	21.88	30.43	-0.07	7.62
19.348	22.42	30.96	0.05	7.74
19.371	18.17	26.71	-0.05	7.64
19.393	14.02	22.57	0.01	7.71
19.416	15.78	24.32	0.01	7.71
19.439	17.43	25.98	-0.07	7.62
19.461	16.72	25.27	0.05	7.74
19.484	16.16	24.70	-0.05	7.64
19.507	14.45	23.00	0.01	7.71
19.529	12.61	21.16	0.01	7.70
19.552	11.22	19.77	-0.07	7.62
19.574	9.86	18.40	0.04	7.74
19.597	13.31	21.86	-0.05	7.64
19.620	19.16	27.71	0.02	7.71
19.642	22.22	30.76	0.00	7.70
19.665	22.16	30.71	-0.07	7.62
19.688	17.16	25.70	0.04	7.74
19.710	13.92	22.47	-0.06	7.63
19.733	16.37	24.91	0.02	7.71
19.755	17.29	25.83	0.00	7.69
19.778	16.68	25.23	-0.07	7.62
19.801	15.93	24.48	0.04	7.74
19.823	14.01	22.55	-0.06	7.63
19.846	12.40	20.94	0.01	7.71
19.868	10.91	19.45	-0.01	7.69
19.891	9.77	18.31	-0.07	7.63
19.914	14.57	23.12	0.05	7.74
19.936	20.07	28.61	-0.06	7.63
19.959	22.45	30.99	0.02	7.72
19.982	21.36	29.90	-0.01	7.68
20.004	16.09	24.63	-0.07	7.63
20.027	13.99	22.54	0.05	7.74
20.049	16.76	25.30	-0.06	7.63
20.072	17.11	25.65	0.02	7.72
20.095	16.47	25.02	-0.02	7.68
20.117	15.56	24.10	-0.07	7.62
20.140	13.32	21.86	0.02	7.72
20.164	11.78	20.33	-0.07	7.63
20.186	10.27	18.81	0.04	7.74
20.209	10.93	19.48	-0.06	7.63
20.232	17.41	25.96	0.04	7.74
20.260	21.57	30.12	0.02	7.71
20.283	22.59	31.13	-0.03	7.67
20.306	18.68	27.23	-0.06	7.63
20.328	14.23	22.78	0.05	7.74
20.351	15.38	23.92	-0.07	7.63
20.373	17.28	25.83	0.02	7.71
20.396	16.81	25.35	-0.03	7.66
20.419	16.13	24.67	0.03	7.72
20.448	14.30	22.84	-0.05	7.64
20.471	12.59	21.14	0.04	7.73
20.493	11.14	19.68	-0.07	7.62
20.516	9.74	18.28	0.02	7.72
20.539	13.30	21.85	-0.04	7.65
20.561	19.23	27.78	-0.05	7.65
20.584	22.13	30.68	0.05	7.74
20.606	21.91	30.45	-0.07	7.62
20.629	17.09	25.64	0.03	7.72
20.652	13.84	22.38	-0.04	7.65
20.674	16.34	24.88	-0.04	7.65
20.697	17.23	25.78	0.05	7.74
20.720	16.62	25.17	-0.07	7.62
20.742	15.83	24.37	0.03	7.72
20.765	14.04	22.58	-0.05	7.65
20.787	12.39	20.93	-0.04	7.66
20.810	10.97	19.52	0.04	7.74
20.833	9.85	18.39	-0.07	7.62
20.855	14.59	23.14	0.03	7.73
20.878	20.08	28.62	-0.05	7.65
20.901	22.68	31.22	-0.02	7.67
20.923	21.51	30.06	0.04	7.73
20.946	16.19	24.73	-0.08	7.62
20.968	13.98	22.53	0.04	7.73
20.991	16.77	25.32	-0.05	7.65
21.014	17.16	25.71	-0.02	7.67
21.036	16.51	25.05	0.04	7.73
21.059	15.62	24.17	-0.07	7.62
21.082	13.71	22.25	0.03	7.73
21.104	12.02	20.56	-0.05	7.64
21.127	10.68	19.22	-0.01	7.68
21.149	10.19	18.74	0.04	7.73
21.172	15.81	24.35	-0.07	7.62
21.195	20.75	29.30	0.04	7.73
21.217	22.63	31.17	-0.05	7.64
21.240	20.53	29.08	0.00	7.69
21.262	13.96	22.51	-0.07	7.62
21.285	15.85	24.40	0.04	7.74
21.307	17.36	25.91	-0.05	7.64
21.330	16.61	25.16	0.05	7.74
21.358	16.05	24.59	0.01	7.70
21.381	14.14	22.69	0.03	7.72
21.403	12.47	21.02	-0.07	7.62
21.426	11.03	19.57	0.04	7.74
21.449	9.91	18.45	-0.05	7.64
21.471	14.08	22.63	0.01	7.70
21.494	19.81	28.35	0.02	7.72
21.517	22.43	30.98	-0.07	7.63
21.539	21.60	30.14	0.04	7.74
21.562	16.46	25.01	-0.05	7.64
21.584	13.89	22.44	0.01	7.71
21.607	16.63	25.18	0.01	7.71
21.630	17.22	25.76	-0.07	7.62
21.652	16.58	25.12	0.04	7.74
21.675	15.67	24.21	-0.06	7.64
21.698	13.74	22.28	0.02	7.71
21.720	12.09	20.64	0.00	7.70
21.743	10.67	19.21	0.02	7.71
21.772	10.17	18.71	-0.07	7.62
21.795	15.99	24.54	0.05	7.74
21.817	20.67	29.22	-0.06	7.63
21.840	22.66	31.20	0.02	7.72
21.863	20.38	28.93	-0.00	7.69
21.885	15.15	23.70	-0.07	7.63
21.908	14.44	22.99	0.05	7.74
21.931	17.16	25.71	-0.06	7.63
21.953	17.01	25.56	0.02	7.71
21.976	16.41	24.95	-0.01	7.68
21.998	15.11	23.66	-0.06	7.63
22.021	13.20	21.74	0.05	7.74
22.044	11.73	20.27	-0.06	7.63
22.066	10.31	18.85	0.02	7.72
22.089	10.99	19.53	-0.02	7.68
22.112	17.21	25.76	-0.06	7.63
22.134	21.27	29.82	0.05	7.74
22.157	22.47	31.01	-0.07	7.63
22.179	19.20	27.74	0.02	7.72
22.202	14.34	22.89	-0.03	7.66
22.225	14.97	23.52	-0.05	7.64
22.247	17.23	25.77	0.05	7.74
22.270	16.71	25.26	-0.07	7.62
22.293	16.15	24.69	0.02	7.72
22.315	14.62	23.17	-0.04	7.66
22.338	13.02	21.56	-0.05	7.65
22.360	11.44	19.99	0.04	7.74
22.383	9.94	18.49	-0.07	7.63
22.406	11.98	20.53	0.05	7.74
22.436	18.79	27.34	0.03	7.72
22.458	21.97	30.52	-0.04	7.65
22.481	22.13	30.67	0.03	7.73
22.510	16.99	25.53	-0.04	7.66
22.532	13.76	22.30	0.04	7.74
22.555	16.26	24.80	-0.07	7.62
22.577	17.18	25.73	0.03	7.72
22.600	16.60	25.15	-0.05	7.64
22.623	15.79	24.34	-0.03	7.67
22.645	13.88	22.42	0.04	7.73
22.668	12.28	20.83	-0.07	7.62
22.690	10.76	19.30	0.03	7.73
22.713	9.71	18.26	-0.05	7.65
22.736	14.58	23.13	-0.02	7.68
22.758	20.01	28.55	0.04	7.73
22.781	22.35	30.90	-0.07	7.62
22.804	21.26	29.80	0.04	7.73
22.826	16.00	24.54	-0.05	7.64
22.849	13.88	22.43	-0.01	7.69
22.871	16.75	25.30	0.04	7.73
22.894	17.11	25.65	-0.08	7.62
22.917	16.39	24.94	0.04	7.73
22.939	15.46	24.01	-0.05	7.64
22.962	13.61	22.16	-0.00	7.69
22.985	11.93	20.48	0.03	7.72
23.007	10.49	19.04	-0.07	7.62
23.030	10.12	18.67	0.04	7.74
23.052	15.85	24.39	-0.05	7.64
23.075	20.72	29.26	0.02	7.72
23.097	22.66	31.21	0.02	7.72
23.120	20.49	29.04	-0.07	7.62
23.142	15.25	23.80	0.04	7.74
23.165	14.25	22.80	-0.05	7.64
23.188	17.06	25.60	0.01	7.71
23.210	16.96	25.51	0.02	7.71
23.233	16.38	24.92	-0.07	7.62
23.255	15.09	23.63	0.05	7.74
23.278	13.28	21.82	-0.06	7.64
23.301	11.69	20.24	0.01	7.71
23.323	10.28	18.83	0.01	7.70
23.346	10.65	19.19	-0.07	7.63
23.369	16.91	25.46	0.04	7.73
23.391	21.17	29.71	-0.06	7.64
23.414	22.55	31.09	0.02	7.71
23.436	19.40	27.95	-0.01	7.69
23.459	14.44	22.98	-0.07	7.63
23.482	14.85	23.40	0.05	7.74
23.504	17.21	25.75	-0.06	7.63
23.527	16.71	25.26	0.01	7.70
23.553	16.25	24.80	0.02	7.72
23.576	14.39	22.94	-0.07	7.63
23.605	12.60	21.15	-0.02	7.68
23.627	11.14	19.69	-0.06	7.63
23.650	9.70	18.24	0.04	7.74
23.672	13.02	21.56	-0.06	7.63
23.695	19.06	27.60	0.03	7.72
23.718	22.13	30.68	-0.02	7.67
23.740	21.98	30.53	-0.06	7.63
23.763	17.16	25.70	0.04	7.74
23.786	13.82	22.37	-0.07	7.63
23.808	16.27	24.82	0.02	7.72
23.831	17.31	25.86	-0.03	7.66
23.853	16.57	25.11	-0.05	7.64
23.876	15.79	24.34	0.04	7.74
23.903	13.79	22.34	0.00	7.70
23.931	12.11	20.66	-0.07	7.63
23.954	10.67	19.21	0.02	7.72
23.976	9.85	18.39	-0.04	7.66
23.999	15.07	23.61	-0.05	7.65
24.022	20.37	28.92	0.04	7.74
24.044	22.53	31.08	-0.07	7.63
24.067	21.03	29.58	0.02	7.72
24.090	15.69	24.23	-0.04	7.65
24.112	14.11	22.66	-0.04	7.66
24.135	16.90	25.45	0.04	7.73
24.157	17.06	25.61	-0.07	7.62
24.180	16.52	25.07	0.03	7.72
24.203	15.38	23.92	-0.05	7.65
24.225	13.47	22.02	-0.03	7.66
24.248	11.86	20.40	0.04	7.73
24.271	10.44	18.98	-0.07	7.62
24.293	10.32	18.87	0.03	7.73
24.316	16.34	24.89	-0.05	7.65
24.338	20.89	29.43	-0.02	7.67
24.361	22.53	31.07	0.04	7.73
24.384	19.92	28.47	-0.07	7.63
24.406	14.66	23.20	0.04	7.73
24.436	14.90	23.45	0.03	7.73
24.458	17.22	25.76	-0.05	7.64
24.481	16.79	25.33	-0.02	7.67
24.504	16.22	24.77	0.03	7.73
24.526	14.71	23.26	-0.07	7.62
24.549	13.01	21.56	0.03	7.73
24.571	11.49	20.04	-0.05	7.64
24.594	10.07	18.62	-0.01	7.68
24.617	11.71	20.25	0.03	7.73
24.639	17.98	26.53	-0.07	7.62
24.662	21.64	30.18	0.04	7.73
24.685	22.28	30.83	-0.07	7.62
24.716	17.47	26.01	-0.07	7.62
24.737	13.75	22.29	-0.00	7.69
24.760	15.77	24.32	0.03	7.73
24.782	17.17	25.72	-0.07	7.62
24.805	16.72	25.27	0.04	7.74
24.827	15.96	24.50	-0.05	7.64
24.850	14.14	22.69	0.00	7.70
24.873	12.44	20.99	0.03	7.72
24.895	10.98	19.52	-0.07	7.62
24.918	9.69	18.23	0.04	7.73
24.941	13.59	22.14	-0.06	7.64
24.963	19.41	27.95	0.01	7.70
24.986	22.05	30.60	0.02	7.72
25.008	21.60	30.15	-0.07	7.62
25.031	16.78	25.33	0.04	7.73
25.054	13.83	22.37	-0.05	7.64
25.076	16.40	24.95	0.01	7.71
25.099	17.18	25.72	0.02	7.71
25.122	16.53	25.07	-0.07	7.62
25.144	15.62	24.17	0.04	7.74
25.167	13.84	22.38	-0.05	7.64
25.189	12.23	20.78	0.01	7.70
25.212	10.69	19.23	0.01	7.71
25.235	9.82	18.36	-0.07	7.62
25.257	14.90	23.45	0.04	7.74
25.280	20.24	28.78	-0.05	7.64
25.303	22.68	31.23	0.01	7.71
25.325	21.19	29.74	0.01	7.70
25.348	15.84	24.39	-0.07	7.62
25.370	14.00	22.54	0.04	7.74
25.393	16.75	25.29	-0.06	7.64
25.416	17.12	25.66	0.01	7.71
25.438	16.43	24.97	0.00	7.70
25.461	15.21	23.76	-0.07	7.62
25.484	13.42	21.96	0.05	7.74
25.506	11.89	20.43	-0.06	7.63
25.529	10.48	19.02	0.02	7.71
25.551	10.16	18.70	0.00	7.70
25.574	16.11	24.65	-0.07	7.63
25.597	20.72	29.27	0.05	7.74
25.619	22.62	31.16	-0.06	7.63
25.642	20.16	28.70	0.02	7.71
25.664	15.00	23.55	-0.00	7.69
25.687	14.38	22.93	-0.07	7.63
25.710	17.00	25.54	0.04	7.74
25.732	16.79	25.34	-0.06	7.63
25.762	16.22	24.77	-0.06	7.63
25.784	14.74	23.29	0.02	7.72
25.807	12.69	21.24	-0.05	7.64
25.827	11.45	19.99	-0.07	7.63
25.850	10.02	18.57	0.05	7.74
25.872	11.50	20.05	-0.06	7.63
25.897	18.05	26.60	0.04	7.73
25.925	21.80	30.34	0.02	7.72
25.948	22.24	30.79	-0.01	7.68
25.970	17.92	26.47	-0.07	7.63
25.993	13.76	22.31	0.05	7.74
26.015	15.68	24.23	-0.06	7.63
26.038	17.17	25.71	0.01	7.71
26.061	16.68	25.23	-0.01	7.68
26.083	16.02	24.56	-0.07	7.63
26.106	14.19	22.73	0.04	7.74
26.129	12.42	20.97	-0.06	7.63
26.151	11.09	19.64	0.02	7.71
26.174	9.66	18.20	-0.01	7.68
26.197	13.34	21.88	-0.06	7.63
26.219	19.14	27.68	0.05	7.74
26.242	22.06	30.61	-0.06	7.63
26.264	21.86	30.40	0.02	7.71
26.287	16.82	25.36	-0.02	7.68
26.310	13.74	22.28	-0.06	7.63
26.332	16.19	24.74	0.05	7.74
26.355	17.16	25.70	-0.06	7.63
26.377	16.54	25.09	0.02	7.72
26.400	15.77	24.32	-0.02	7.67
26.423	13.80	22.35	-0.06	7.63
26.445	12.16	20.70	0.05	7.74
26.468	10.74	19.28	-0.06	7.63
26.491	9.74	18.29	0.02	7.72
26.513	16.59	25.14	0.02	7.72
26.539	21.14	29.68	-0.06	7.63
26.562	22.54	31.08	0.02	7.71
26.584	19.49	28.04	-0.02	7.67
26.607	14.42	22.97	-0.06	7.63
26.629	14.69	23.24	0.05	7.74
26.652	17.12	25.66	-0.06	7.63
26.675	16.81	25.35	0.02	7.72
26.697	16.20	24.74	-0.02	7.67
26.720	14.75	23.29	-0.06	7.63
26.743	12.95	21.49	0.05	7.74
26.765	11.50	20.05	-0.06	7.63
26.788	9.97	18.52	0.02	7.72
26.810	11.45	20.00	-0.02	7.67
26.833	18.02	26.57	0.02	7.72
26.862	21.85	30.39	-0.06	7.63
26.884	22.20	30.74	0.04	7.74
26.907	17.89	26.43	-0.06	7.63
26.929	13.77	22.32	0.02	7.72
26.952	15.59	24.14	-0.02	7.67
26.975	17.11	25.66	0.02	7.71
27.005	16.65	25.19	-0.06	7.63
27.027	15.85	24.40	0.04	7.74
27.050	13.99	22.53	-0.06	7.63
27.072	12.34	20.88	0.02	7.72
27.100	10.73	19.27	-0.01	7.68
27.124	9.78	18.33	-0.02	7.68
27.147	14.90	23.45	-0.06	7.63
27.170	20.18	28.73	0.05	7.74
27.192	22.45	30.99	-0.06	7.63
27.215	20.95	29.49	0.02	7.71
27.238	15.76	24.31	-0.02	7.68
27.260	14.14	22.68	-0.07	7.63
27.283	16.87	25.42	0.04	7.74
27.305	17.11	25.65	-0.06	7.63
27.328	16.48	25.03	0.02	7.71
27.351	15.34	23.89	-0.01	7.68
27.373	13.49	22.04	-0.07	7.63
27.396	11.93	20.48	0.04	7.74
27.419	10.42	18.96	-0.06	7.63
27.441	10.25	18.79	0.02	7.72
27.464	16.11	24.66	-0.01	7.68
27.486	20.74	29.29	-0.06	7.63
27.509	22.68	31.22	0.05	7.74
27.532	20.19	28.74	-0.06	7.63
27.554	14.89	23.44	0.02	7.71
27.577	14.40	22.94	-0.01	7.68
27.600	17.04	25.58	-0.07	7.63
27.622	16.88	25.43	0.04	7.74
27.645	16.32	24.86	-0.06	7.63
27.667	14.82	23.37	0.02	7.72
27.690	13.07	21.61	-0.00	7.69
27.713	11.56	20.10	-0.07	7.62
27.735	10.08	18.62	0.05	7.74
27.758	10.93	19.48	-0.06	7.64
27.781	17.21	25.76	0.02	7.71
27.803	21.14	29.69	0.00	7.69
27.826	22.49	31.03	-0.07	7.63
27.848	18.97	27.51	0.05	7.74
27.871	14.16	22.71	-0.06	7.64
27.894	14.75	23.30	0.02	7.71
27.916	17.04	25.59	0.00	7.70
27.939	16.64	25.19	0.02	7.72
27.967	16.03	24.58	-0.07	7.62
27.990	14.42	22.97	0.04	7.74
28.013	12.65	21.20	-0.06	7.64
28.035	11.19	19.74	0.01	7.71
28.058	9.80	18.35	0.01	7.70
28.081	12.70	21.24	-0.07	7.62
28.103	18.78	27.33	0.03	7.73
28.133	22.18	30.73	0.05	7.74
28.156	21.66	30.20	-0.06	7.64
28.178	16.74	25.28	0.01	7.71
28.201	13.64	22.18	0.01	7.70
28.224	16.25	24.79	-0.07	7.62
28.246	17.21	25.76	0.04	7.73
28.269	16.60	25.14	-0.05	7.64
28.291	15.69	24.23	0.01	7.70
28.314	13.77	22.32	0.02	7.71
28.337	12.22	20.76	-0.07	7.62
28.359	10.65	19.20	0.04	7.73
28.382	9.74	18.29	-0.06	7.64
28.405	14.66	23.20	0.00	7.70
28.427	20.10	28.65	-0.05	7.64
28.457	22.30	30.84	0.02	7.72
28.479	20.58	29.13	-0.07	7.62
28.502	15.32	23.87	0.04	7.74
28.524	14.13	22.68	-0.05	7.65
28.547	16.83	25.37	0.00	7.70
28.570	17.01	25.55	0.03	7.73
28.592	16.37	24.92	-0.07	7.62
28.615	15.10	23.64	0.03	7.73
28.638	13.31	21.85	-0.05	7.64
28.660	11.73	20.27	-0.00	7.69
28.683	10.27	18.81	0.03	7.73
28.705	10.41	18.96	-0.07	7.62
28.728	16.53	25.08	0.04	7.73
28.751	21.11	29.65	-0.05	7.65
28.773	22.53	31.08	-0.01	7.69
28.796	19.59	28.13	0.03	7.73
28.819	14.61	23.15	-0.07	7.62
28.841	14.51	23.06	0.03	7.73
28.864	17.10	25.65	-0.05	7.64
28.886	16.90	25.45	-0.01	7.68
28.909	16.24	24.78	0.03	7.73
28.932	14.69	23.24	-0.07	7.63
28.954	12.87	21.41	0.03	7.73
28.977	11.50	20.05	-0.05	7.65
29.000	9.98	18.53	-0.02	7.67
29.022	11.27	19.81	0.04	7.73
29.045	17.51	26.06	-0.07	7.62
29.067	21.58	30.12	0.03	7.73
29.099	22.27	30.81	0.02	7.72
29.125	17.86	26.40	-0.07	7.63
29.145	13.86	22.40	-0.03	7.66
29.168	15.53	24.08	0.04	7.73
29.191	17.15	25.70	-0.07	7.62
29.213	16.66	25.21	0.03	7.72
29.236	16.05	24.59	-0.04	7.65
29.258	14.12	22.66	0.02	7.71
29.288	12.33	20.87	-0.04	7.66
29.311	10.85	19.40	0.04	7.74
29.333	9.70	18.25	-0.07	7.62
29.356	13.91	22.46	0.02	7.72
29.379	19.64	28.18	-0.04	7.66
29.401	22.23	30.78	-0.05	7.65
29.424	21.39	29.94	0.04	7.73
29.447	16.41	24.96	-0.07	7.62
29.469	13.83	22.37	0.02	7.72
29.492	16.45	25.00	-0.04	7.66
29.514	17.17	25.71	-0.05	7.64
29.537	16.55	25.10	0.04	7.74
29.560	15.58	24.13	-0.07	7.63
29.582	13.58	22.12	0.02	7.72
29.605	12.06	20.60	-0.03	7.66
29.627	10.60	19.14	-0.06	7.63
29.650	9.85	18.40	0.05	7.74
29.673	15.13	23.68	-0.06	7.63
29.695	20.31	28.86	0.02	7.72
29.718	22.51	31.05	-0.02	7.67
29.741	20.76	29.30	-0.06	7.63
29.763	15.46	24.00	0.04	7.74
29.785	14.09	22.64	-0.06	7.63
29.808	16.86	25.41	0.02	7.72
29.831	17.05	25.60	-0.01	7.68
29.853	16.46	25.01	-0.07	7.63
29.876	15.27	23.81	0.05	7.74
29.898	13.32	21.87	-0.06	7.63
29.921	11.82	20.37	0.02	7.71
29.944	10.42	18.97	-0.00	7.69
29.966	10.43	18.98	-0.07	7.63
29.989	16.58	25.12	0.05	7.74
30.011	20.97	29.51	-0.06	7.64
30.034	22.50	31.05	0.02	7.72
30.057	19.90	28.44	0.00	7.69
30.079	14.74	23.29	-0.07	7.62
30.102	14.57	23.11	0.04	7.74
30.125	17.10	25.64	-0.06	7.64
30.147	16.81	25.36	0.01	7.71
30.170	16.29	24.83	0.01	7.70
30.192	14.93	23.48	-0.07	7.63
30.215	13.11	21.65	-0.02	7.68
30.244	11.51	20.05	0.04	7.74
30.266	9.93	18.47	-0.05	7.64
30.289	11.76	20.31	0.01	7.70
30.311	18.13	26.67	0.02	7.72
30.334	21.70	30.24	-0.07	7.62
30.357	22.34	30.89	0.04	7.74
30.379	17.90	26.44	-0.07	7.62
30.409	13.75	22.30	-0.05	7.64
30.432	15.81	24.35	0.01	7.70
30.454	17.21	25.75	0.03	7.72
30.477	16.73	25.27	-0.07	7.62
30.500	15.90	24.44	0.04	7.73
30.522	14.08	22.63	-0.05	7.64
30.545	12.48	21.03	-0.01	7.69
30.567	11.02	19.57	0.03	7.73
30.590	9.72	18.27	-0.07	7.62
30.613	13.77	22.31	0.04	7.73
30.635	19.42	27.97	-0.05	7.64
30.658	22.13	30.68	-0.01	7.68
30.681	21.58	30.12	0.04	7.73
30.703	16.61	25.15	-0.07	7.62
30.726	13.80	22.35	0.03	7.73
30.748	16.39	24.94	-0.05	7.64
30.771	17.08	25.63	-0.02	7.67
30.794	16.49	25.03	0.03	7.73
30.816	15.55	24.09	-0.07	7.62
30.839	13.77	22.32	0.04	7.73
30.862	12.09	20.63	-0.05	7.64
30.884	10.70	19.25	-0.03	7.66
30.907	9.84	18.38	0.04	7.73
30.929	14.91	23.45	-0.07	7.63
30.952	20.17	28.71	0.03	7.72
30.975	22.46	31.01	-0.05	7.65
30.997	20.88	29.42	-0.03	7.66
31.020	15.69	24.24	0.04	7.73
31.043	14.04	22.59	-0.07	7.62
31.065	16.73	25.27	0.03	7.72
31.093	17.00	25.54	0.01	7.70
31.117	16.42	24.97	-0.04	7.65
31.140	15.05	23.59	-0.04	7.65
31.162	13.25	21.80	0.04	7.73
31.185	11.64	20.18	-0.07	7.62
31.208	10.21	18.75	0.02	7.72
31.230	10.70	19.25	-0.04	7.65
31.253	16.86	25.41	-0.05	7.64
31.276	21.25	29.79	0.05	7.74
31.298	22.66	31.20	-0.07	7.63
31.321	19.16	27.70	0.04	7.73
31.349	14.11	22.65	0.02	7.72
31.372	15.06	23.60	-0.04	7.66
31.395	17.13	25.68	-0.06	7.64
31.417	16.71	25.25	0.05	7.74
31.440	16.15	24.70	-0.07	7.63
31.462	14.55	23.10	0.02	7.72
31.485	12.76	21.30	-0.03	7.67
31.508	11.17	19.72	0.05	7.74
31.534	9.76	18.30	-0.06	7.63
31.557	13.04	21.58	0.05	7.74
31.579	19.03	27.57	-0.06	7.63
31.602	22.04	30.59	0.02	7.72
31.625	21.80	30.35	-0.01	7.68
31.647	17.03	25.58	-0.07	7.63
31.670	13.67	22.22	0.05	7.74
31.693	16.07	24.62	-0.06	7.63
31.715	17.18	25.73	0.02	7.72
31.738	16.62	25.16	-0.01	7.68
31.760	15.39	23.93	0.02	7.71
31.787	13.36	21.91	0.02	7.71
31.810	11.82	20.37	-0.01	7.69
31.832	10.38	18.92	-0.07	7.62
31.855	10.43	18.97	0.05	7.74
31.878	16.39	24.94	-0.06	7.64
31.900	20.89	29.44	0.02	7.71
31.923	22.54	31.09	-0.00	7.69
31.945	19.85	28.40	-0.07	7.62
31.968	14.76	23.31	0.04	7.74
31.991	14.61	23.16	-0.05	7.64
32.013	17.16	25.70	0.01	7.71
32.036	16.85	25.39	0.01	7.70
32.059	16.34	24.88	-0.07	7.62
32.081	14.86	23.41	0.04	7.73
32.104	13.05	21.59	-0.06	7.64
32.126	11.49	20.04	0.01	7.71
32.149	10.01	18.55	0.01	7.70
32.172	11.17	19.72	-0.07	7.62
32.194	17.62	26.17	0.04	7.74
32.217	21.47	30.01	-0.06	7.64
32.240	22.44	30.99	0.01	7.71
32.262	18.76	27.30	0.01	7.71
32.285	14.02	22.57	-0.07	7.63
32.307	15.15	23.69	0.04	7.74
32.330	17.21	25.75	-0.05	7.64
32.353	16.71	25.25	0.01	7.70
32.375	16.21	24.75	0.02	7.71
32.398	14.50	23.05	-0.07	7.62
32.421	12.55	21.10	0.04	7.73
32.447	10.99	19.54	-0.07	7.62
32.469	9.73	18.28	0.04	7.74
32.492	13.78	22.32	-0.05	7.64
32.515	19.61	28.16	0.00	7.70
32.537	22.32	30.86	0.02	7.72
32.560	21.69	30.24	-0.08	7.62
32.582	16.52	25.06	0.04	7.73
32.605	13.74	22.29	-0.05	7.64
32.628	16.37	24.91	0.00	7.70
32.650	16.92	25.46	-0.04	7.65
32.674	16.51	25.05	-0.00	7.69
32.697	15.22	23.77	0.03	7.73
32.719	13.41	21.95	-0.08	7.61
32.742	11.83	20.37	0.03	7.73
32.765	10.41	18.95	-0.05	7.64
32.787	10.40	18.94	-0.00	7.69
32.810	16.58	25.13	0.04	7.73
32.833	20.93	29.48	-0.07	7.62
32.855	22.53	31.08	0.03	7.73
32.878	19.72	28.26	-0.05	7.64
32.900	14.72	23.27	-0.01	7.69
32.923	14.62	23.17	0.04	7.73
32.946	17.12	25.67	-0.07	7.62
32.968	16.88	25.43	0.04	7.73
32.991	16.31	24.85	-0.05	7.64
33.014	14.87	23.42	-0.01	7.68
33.036	13.09	21.63	0.03	7.73
33.059	11.63	20.18	-0.07	7.62
33.081	10.12	18.67	0.04	7.73
33.104	11.31	19.85	-0.05	7.64
33.127	17.62	26.16	-0.02	7.68
33.149	21.55	30.09	0.04	7.73
33.172	22.64	31.18	-0.07	7.62
33.195	18.80	27.35	0.03	7.73
33.217	14.27	22.82	-0.05	7.65
33.240	15.19	23.74	-0.02	7.68
33.262	17.38	25.92	0.03	7.73
33.285	16.86	25.40	-0.07	7.62
33.308	16.23	24.78	0.03	7.73
33.330	14.49	23.04	-0.05	7.65
33.353	12.79	21.33	-0.02	7.67
33.376	11.24	19.79	0.04	7.73
33.398	9.94	18.49	-0.07	7.62
33.421	12.42	20.97	0.03	7.73
33.443	18.60	27.14	-0.05	7.64
33.466	21.88	30.42	-0.02	7.67
33.489	22.31	30.85	0.04	7.73
33.511	17.55	26.10	0.00	7.70
33.540	13.81	22.35	-0.07	7.62
33.562	16.21	24.76	0.03	7.73
33.585	17.11	25.65	-0.05	7.64
33.608	16.54	25.09	-0.02	7.67
33.630	15.85	24.40	0.04	7.73
33.653	13.99	22.53	-0.07	7.62
33.676	12.34	20.88	0.03	7.72
33.698	10.96	19.50	-0.05	7.64
33.721	9.90	18.44	-0.02	7.67
33.743	14.70	23.24	-0.05	7.65
33.773	20.39	28.94	0.04	7.73
33.795	22.55	31.10	-0.07	7.62
33.818	20.83	29.38	0.03	7.73
33.841	15.65	24.20	-0.05	7.64
33.863	14.04	22.59	-0.02	7.67
33.886	16.96	25.50	0.03	7.73
33.909	17.08	25.63	-0.07	7.62
33.931	16.48	25.03	0.03	7.73
33.954	15.37	23.91	-0.05	7.65
33.976	13.39	21.94	-0.02	7.67
33.999	11.88	20.42	0.03	7.73
34.022	10.50	19.04	-0.07	7.62
34.044	10.37	18.92	0.04	7.73
34.067	16.34	24.89	-0.05	7.65
34.090	20.93	29.48	-0.03	7.67
34.112	22.51	31.06	0.04	7.73
34.135	20.03	28.57	-0.07	7.62
34.157	14.92	23.47	0.03	7.73
34.180	14.62	23.16	-0.05	7.65
34.203	17.14	25.68	-0.02	7.67
34.225	17.01	25.55	0.04	7.73
34.248	16.42	24.96	-0.07	7.63
34.270	14.97	23.52	0.03	7.72
34.293	13.13	21.67	-0.05	7.64
34.316	11.64	20.19	-0.02	7.67
34.338	10.16	18.70	0.04	7.73
34.361	11.15	19.70	-0.07	7.62
34.384	17.49	26.03	0.03	7.73
34.406	21.52	30.07	-0.05	7.65
34.429	22.49	31.03	-0.02	7.67
34.451	19.17	27.72	0.03	7.73
34.474	14.26	22.81	-0.07	7.62
34.497	15.19	23.73	0.03	7.73
34.519	17.24	25.79	-0.05	7.65
34.542	16.75	25.29	-0.02	7.67
34.565	16.20	24.74	0.04	7.73
34.587	14.57	23.11	-0.07	7.62
34.610	12.89	21.44	0.03	7.72
34.632	11.33	19.88	-0.08	7.62
34.661	9.76	18.30	-0.05	7.64
34.684	12.96	21.51	-0.03	7.67
34.706	19.01	27.55	0.04	7.73
34.729	22.11	30.66	-0.07	7.62
34.752	22.15	30.70	0.03	7.72
34.774	17.44	25.98	-0.05	7.65
34.797	13.83	22.38	-0.03	7.67
34.819	16.04	24.58	0.04	7.73
34.842	17.24	25.78	-0.07	7.62
34.865	16.82	25.36	0.03	7.72
34.887	16.01	24.55	-0.05	7.65
34.910	14.01	22.56	0.02	7.72
34.940	12.27	20.81	-0.03	7.67
34.962	10.83	19.38	0.04	7.73
34.985	9.86	18.41	-0.07	7.62
35.008	14.96	23.51	0.03	7.72
35.030	20.25	28.80	-0.05	7.65
35.053	22.42	30.97	-0.03	7.66
35.075	20.81	29.35	-0.05	7.64
35.105	15.37	23.91	0.04	7.73
35.127	14.40	22.94	-0.07	7.62
35.150	17.11	25.65	0.03	7.72
35.173	17.08	25.62	-0.05	7.65
35.195	16.43	24.98	-0.03	7.67
35.218	15.19	23.73	0.04	7.73
35.241	13.36	21.91	-0.07	7.62
35.263	11.82	20.37	0.03	7.72
35.286	10.34	18.89	-0.05	7.65
35.308	10.66	19.20	-0.03	7.66
35.331	16.90	25.44	0.04	7.73
35.354	21.30	29.84	-0.07	7.63
35.376	22.74	31.29	0.03	7.72
35.399	19.66	28.20	-0.05	7.65
35.422	14.69	23.23	-0.03	7.66
35.444	14.80	23.34	0.04	7.73
35.467	17.34	25.88	-0.07	7.62
35.489	16.97	25.52	0.03	7.72
35.512	16.39	24.93	-0.05	7.65
35.535	14.90	23.44	-0.03	7.66
35.557	13.08	21.62	0.04	7.73
35.580	11.52	20.06	-0.07	7.62
35.603	10.06	18.61	0.03	7.72
35.625	11.60	20.15	-0.05	7.65
35.648	17.97	26.52	-0.04	7.66
35.670	21.70	30.24	0.04	7.74
35.693	22.62	31.17	-0.08	7.62
35.716	18.69	27.24	0.03	7.72
35.738	14.22	22.77	-0.05	7.65
35.761	15.62	24.17	0.03	7.73
35.789	17.32	25.87	-0.04	7.65
35.812	16.62	25.17	0.04	7.73
35.835	16.07	24.62	-0.07	7.62
35.857	14.30	22.84	0.03	7.72
35.880	12.67	21.22	-0.05	7.65
35.903	11.21	19.76	-0.04	7.65
35.925	9.83	18.38	0.04	7.74
35.948	13.56	22.10	-0.07	7.62
35.970	19.49	28.04	0.03	7.72
35.993	22.33	30.88	-0.04	7.65
36.016	21.87	30.42	-0.04	7.65
36.038	16.99	25.53	0.04	7.73
36.061	13.90	22.44	-0.06	7.64
36.091	16.82	25.36	-0.07	7.62
36.113	17.33	25.87	0.02	7.72
36.136	16.56	25.11	-0.04	7.65
36.159	15.75	24.30	-0.04	7.65
36.181	13.81	22.36	0.04	7.73
36.204	12.18	20.73	-0.07	7.62
36.226	10.81	19.35	0.02	7.72
36.249	10.15	18.69	-0.04	7.65
36.272	15.55	24.09	-0.05	7.65
36.294	20.53	29.08	0.04	7.74
36.317	22.62	31.17	-0.07	7.62
36.340	20.87	29.42	0.02	7.72
36.362	15.62	24.17	-0.04	7.65
36.385	14.33	22.88	-0.04	7.65
36.407	17.16	25.70	-0.04	7.65
36.437	17.02	25.56	0.04	7.74
36.459	16.45	25.00	-0.07	7.62
36.482	15.20	23.74	0.02	7.72
36.505	13.30	21.84	-0.04	7.65
36.527	11.74	20.29	-0.05	7.65
36.550	10.27	18.82	0.04	7.74
36.573	11.05	19.60	-0.07	7.62
36.595	17.44	25.98	0.02	7.72
36.618	21.50	30.04	-0.04	7.65
36.640	22.67	31.21	-0.05	7.64
36.663	19.38	27.93	0.04	7.73
36.686	14.38	22.93	-0.07	7.62
36.708	15.19	23.73	0.02	7.72
36.731	17.33	25.87	-0.04	7.65
36.754	16.87	25.42	-0.05	7.65
36.776	16.32	24.87	0.04	7.74
36.799	14.79	23.33	-0.07	7.62
36.821	12.95	21.50	0.02	7.71
36.844	11.53	20.08	-0.04	7.65
36.867	10.10	18.65	-0.05	7.65
36.889	12.44	20.98	-0.05	7.65
36.918	18.97	27.52	0.04	7.74
36.940	22.32	30.87	-0.07	7.62
36.963	22.46	31.00	0.02	7.72
36.986	16.24	24.78	-0.01	7.69
37.014	14.15	22.70	-0.07	7.63
37.037	16.95	25.49	0.02	7.71
37.059	17.21	25.75	-0.04	7.65
37.082	16.56	25.11	-0.05	7.65
37.104	15.51	24.05	0.04	7.73
37.127	13.59	22.14	-0.07	7.62
37.150	12.00	20.54	0.02	7.72
37.172	10.51	19.05	-0.04	7.65
37.195	10.38	18.93	0.02	7.71
37.225	16.96	25.50	-0.04	7.65
37.247	21.28	29.83	0.04	7.73
37.270	22.70	31.24	-0.07	7.62
37.293	19.65	28.19	0.02	7.71
37.315	14.69	23.23	-0.05	7.65
37.338	14.92	23.47	-0.04	7.65
37.360	17.31	25.85	0.04	7.73
37.383	17.00	25.54	-0.07	7.62
37.406	16.38	24.93	0.03	7.72
37.428	14.91	23.46	-0.05	7.65
37.451	13.10	21.65	-0.04	7.65
37.473	11.54	20.08	0.04	7.73
37.496	10.06	18.61	-0.07	7.62
37.519	11.64	20.18	0.03	7.72
37.541	17.91	26.46	-0.05	7.65
37.564	21.80	30.35	-0.04	7.66
37.587	22.62	31.17	0.04	7.73
37.609	18.67	27.22	-0.07	7.62
37.632	14.18	22.72	0.03	7.72
37.655	15.57	24.11	-0.05	7.65
37.677	17.37	25.92	-0.03	7.66
37.700	16.84	25.39	0.03	7.73
37.722	16.18	24.73	-0.07	7.62
37.745	14.48	23.03	0.04	7.73
37.774	12.60	21.14	0.03	7.72
37.797	11.21	19.76	-0.05	7.65
37.820	9.84	18.39	-0.03	7.67
37.842	13.54	22.09	0.04	7.73
37.865	19.52	28.06	-0.07	7.63
37.887	22.47	31.02	0.03	7.73
37.910	22.08	30.62	-0.05	7.64
37.933	17.05	25.59	-0.02	7.67
37.955	13.91	22.45	0.04	7.73
37.978	16.48	25.02	-0.07	7.63
38.001	17.24	25.78	0.02	7.72
38.029	16.56	25.11	0.03	7.73
38.052	15.83	24.38	-0.05	7.64
38.074	13.87	22.41	-0.02	7.68
38.097	12.23	20.78	0.03	7.73
38.120	10.78	19.33	-0.07	7.62
38.142	10.10	18.65	0.03	7.73
38.165	15.58	24.13	-0.05	7.64
38.187	20.62	29.16	-0.01	7.69
38.210	22.62	31.17	0.03	7.72
38.233	20.81	29.35	-0.07	7.62
38.255	15.43	23.97	0.04	7.73
38.281	14.40	22.95	-0.07	7.62
38.310	17.35	25.90	-0.05	7.64
38.333	17.01	25.56	0.03	7.73
38.362	16.47	25.01	0.00	7.70
38.385	15.05	23.60	0.02	7.72
38.408	13.12	21.67	-0.08	7.62
38.430	11.63	20.17	0.04	7.73
38.453	10.20	18.75	-0.05	7.64
38.475	11.72	20.26	0.01	7.70
38.498	18.03	26.57	0.02	7.71
38.521	21.74	30.29	-0.07	7.62
38.543	22.72	31.27	0.04	7.74
38.566	18.76	27.30	-0.05	7.64
38.589	14.20	22.74	0.01	7.70
38.611	15.62	24.16	0.01	7.71
38.634	17.44	25.98	-0.07	7.63
38.659	16.79	25.34	-0.05	7.65
38.687	16.15	24.69	0.04	7.74
38.709	14.26	22.80	-0.06	7.64
38.732	12.65	21.19	0.01	7.71
38.754	11.16	19.70	0.00	7.70
38.777	9.86	18.41	-0.07	7.63
38.800	13.62	22.17	0.04	7.74
38.822	19.58	28.13	-0.06	7.63
38.845	22.33	30.88	0.02	7.71
38.868	22.03	30.58	-0.01	7.69
38.890	16.81	25.36	-0.06	7.63
38.913	13.83	22.38	0.04	7.73
38.935	16.42	24.96	-0.07	7.63
38.958	17.23	25.77	0.02	7.71
38.981	16.62	25.17	-0.01	7.68
39.003	15.87	24.41	-0.06	7.63
39.026	13.97	22.52	0.04	7.74
39.049	12.32	20.86	-0.05	7.65
39.077	10.71	19.25	-0.07	7.63
39.100	10.27	18.82	0.04	7.74
39.129	16.48	25.02	0.02	7.72
39.151	21.12	29.67	-0.02	7.67
39.174	22.89	31.44	-0.06	7.63
39.197	20.30	28.84	0.04	7.74
39.219	15.02	23.57	-0.07	7.62
39.242	14.57	23.11	0.02	7.72
39.264	17.18	25.72	-0.03	7.66
39.287	16.99	25.54	-0.06	7.64
39.310	16.46	25.00	0.04	7.74
39.332	15.05	23.60	-0.07	7.63
39.355	13.23	21.78	0.02	7.71
39.378	11.71	20.25	-0.04	7.66
39.400	10.16	18.71	-0.05	7.65
39.423	11.11	19.65	0.04	7.74
39.445	17.38	25.93	-0.07	7.62
39.468	21.54	30.09	-0.05	7.65
39.493	22.52	31.07	0.02	7.72
39.515	18.61	27.15	-0.04	7.65
39.538	14.09	22.63	-0.04	7.65
39.561	15.51	24.06	0.04	7.73
39.583	17.36	25.91	-0.07	7.62
39.606	16.77	25.31	0.02	7.72
39.629	16.19	24.73	-0.05	7.65
39.651	14.49	23.03	-0.04	7.65
39.674	12.79	21.33	0.04	7.73
39.696	11.27	19.81	-0.07	7.62
39.719	9.91	18.46	0.03	7.72
39.742	12.87	21.41	-0.04	7.65
39.764	18.96	27.51	-0.03	7.66
39.787	22.18	30.73	0.04	7.74
39.810	22.18	30.73	-0.07	7.62
39.832	17.46	26.01	0.03	7.72
39.855	13.86	22.40	-0.05	7.65
39.877	16.06	24.61	-0.02	7.67
39.900	17.29	25.83	0.04	7.73
39.923	16.65	25.20	-0.07	7.62
39.945	15.93	24.48	0.03	7.72
39.968	14.10	22.65	-0.05	7.64
39.991	12.45	21.00	-0.03	7.67
40.013	11.02	19.56	0.04	7.73
40.036	9.87	18.41	-0.07	7.62
40.058	14.15	22.69	0.03	7.73
40.081	19.82	28.36	-0.05	7.65
40.104	22.48	31.02	-0.02	7.68
40.126	21.74	30.29	0.04	7.73
40.149	16.25	24.79	0.00	7.70
40.178	14.03	22.57	-0.07	7.62
40.200	16.78	25.33	0.03	7.73
40.223	17.04	25.58	-0.05	7.64
40.246	16.46	25.00	-0.02	7.68
40.268	15.57	24.12	0.03	7.73
40.291	13.60	22.15	-0.07	7.62
40.313	12.02	20.56	0.03	7.73
40.336	10.58	19.12	-0.05	7.64
40.359	10.23	18.78	-0.01	7.68
40.381	16.05	24.59	0.03	7.73
40.404	20.92	29.47	-0.07	7.62
40.427	22.57	31.11	0.04	7.74
40.449	20.28	28.83	-0.05	7.64
40.471	15.17	23.71	-0.01	7.69
40.494	14.45	23.00	0.03	7.73
40.516	17.28	25.83	-0.07	7.62
40.539	17.10	25.65	0.04	7.73
40.562	16.47	25.02	-0.05	7.65
40.584	15.21	23.75	-0.01	7.69
40.607	13.15	21.69	-0.05	7.65
40.637	11.59	20.14	0.03	7.73
40.659	10.14	18.69	-0.07	7.62
40.682	11.47	20.02	0.03	7.73
40.705	17.77	26.32	-0.05	7.64
40.727	21.62	30.16	-0.00	7.69
40.750	22.68	31.22	0.03	7.73
40.773	18.83	27.37	-0.08	7.62
40.795	14.22	22.76	0.03	7.73
40.818	15.43	23.98	-0.05	7.64
40.840	17.38	25.93	-0.00	7.69
40.863	16.87	25.41	0.03	7.72
40.886	16.30	24.84	-0.08	7.62
40.908	14.61	23.16	0.04	7.73
40.931	12.85	21.40	-0.05	7.64
40.954	11.41	19.95	0.00	7.69
40.976	9.99	18.54	0.03	7.72
40.999	12.71	21.25	-0.07	7.62
41.021	18.91	27.46	0.04	7.73
41.044	22.06	30.60	-0.05	7.64
41.067	22.34	30.89	0.00	7.70
41.089	17.69	26.24	0.03	7.72
41.112	13.94	22.48	-0.07	7.62
41.135	16.09	24.63	0.04	7.74
41.157	17.31	25.85	-0.05	7.64
41.180	16.65	25.19	0.00	7.70
41.202	16.05	24.59	0.02	7.72
41.225	14.25	22.79	-0.07	7.62
41.248	12.57	21.11	0.04	7.73
41.270	11.09	19.63	-0.07	7.62
41.299	9.93	18.48	-0.05	7.64
41.322	14.75	23.29	0.01	7.70
41.344	20.27	28.81	0.03	7.72
41.367	22.64	31.19	-0.07	7.62
41.389	21.49	30.04	0.04	7.74
41.412	16.15	24.70	-0.05	7.64
41.435	13.99	22.53	0.01	7.70
41.457	16.75	25.29	0.02	7.72
41.480	17.22	25.77	-0.07	7.62
41.502	16.65	25.20	0.04	7.74
41.525	15.58	24.13	-0.05	7.64
41.548	13.74	22.29	0.01	7.71
41.570	12.14	20.69	0.02	7.71
41.593	10.64	19.18	-0.07	7.62
41.616	10.28	18.83	0.04	7.73
41.638	16.04	24.59	-0.05	7.64
41.661	20.73	29.28	0.01	7.71
41.683	22.67	31.21	0.01	7.71
41.706	20.60	29.15	-0.07	7.62
41.729	15.43	23.97	0.04	7.73
41.751	14.87	23.41	-0.05	7.65
41.779	17.43	25.97	0.04	7.74
41.801	16.94	25.49	-0.06	7.64
41.824	16.40	24.94	0.01	7.71
41.846	14.97	23.51	0.00	7.70
41.869	13.13	21.67	-0.07	7.63
41.892	11.58	20.12	0.04	7.74
41.914	10.23	18.77	-0.06	7.63
41.937	12.03	20.58	0.02	7.71
41.960	18.34	26.88	0.00	7.70
41.982	22.13	30.67	-0.07	7.63
42.005	22.66	31.20	0.04	7.74
42.027	18.42	26.97	-0.06	7.63
42.050	14.09	22.64	0.02	7.71
42.073	15.74	24.28	-0.00	7.69
42.095	17.48	26.03	-0.07	7.63
42.118	16.80	25.34	0.04	7.74
42.141	16.18	24.73	-0.06	7.63
42.163	14.48	23.03	0.02	7.71
42.186	12.71	21.26	-0.01	7.69
42.208	10.91	19.45	-0.05	7.65
42.233	10.16	18.70	0.02	7.71
42.255	15.59	24.14	-0.02	7.68
42.278	20.75	29.29	-0.06	7.63
42.301	22.87	31.41	0.04	7.73
42.323	21.08	29.63	-0.06	7.63
42.346	15.73	24.27	0.02	7.72
42.368	14.40	22.95	-0.07	7.63
42.397	17.25	25.80	-0.02	7.67
42.420	17.04	25.58	-0.06	7.63
42.442	16.53	25.07	0.04	7.74
42.465	15.33	23.87	-0.07	7.63
42.487	13.38	21.93	0.02	7.72
42.510	11.85	20.40	-0.03	7.67
42.533	10.40	18.95	-0.06	7.64
42.555	11.04	19.59	0.04	7.74
42.578	17.35	25.90	-0.07	7.63
42.600	21.51	30.06	0.02	7.72
42.623	22.72	31.27	-0.04	7.66
42.646	19.45	27.99	-0.05	7.64
42.668	14.62	23.17	0.04	7.74
42.691	15.21	23.75	-0.07	7.63
42.714	17.45	25.99	0.02	7.72
42.736	16.98	25.52	-0.04	7.65
42.759	16.37	24.91	-0.05	7.65
42.781	14.90	23.45	0.04	7.74
42.804	13.09	21.64	-0.07	7.62
42.827	11.60	20.14	0.02	7.72
42.849	10.11	18.66	-0.04	7.65
42.872	12.09	20.64	-0.04	7.65
42.895	18.42	26.97	-0.03	7.67
42.924	22.22	30.76	0.04	7.74
42.947	22.55	31.09	-0.07	7.62
42.970	17.84	26.39	0.03	7.72
42.992	14.10	22.65	-0.05	7.65
43.015	16.20	24.74	-0.04	7.66
43.038	17.55	26.09	0.04	7.73
43.060	16.83	25.38	-0.08	7.62
43.083	16.08	24.63	0.04	7.73
43.105	14.31	22.86	-0.05	7.65
43.127	12.60	21.14	-0.03	7.67
43.150	11.12	19.66	0.04	7.73
43.173	9.88	18.43	-0.07	7.62
43.195	14.13	22.68	0.03	7.73
43.218	19.92	28.47	-0.05	7.65
43.241	22.57	31.11	-0.02	7.67
43.263	21.97	30.51	0.03	7.73
43.286	16.82	25.37	-0.07	7.63
43.308	14.02	22.57	0.03	7.73
43.331	16.73	25.27	-0.05	7.64
43.354	17.30	25.84	-0.02	7.68
43.376	16.63	25.18	0.04	7.73
43.399	15.91	24.45	-0.07	7.62
43.422	14.01	22.55	0.03	7.73
43.444	12.38	20.93	-0.06	7.64
43.467	10.93	19.48	-0.01	7.69
43.489	10.41	18.96	0.03	7.73
43.519	16.85	25.39	-0.00	7.69
43.542	21.20	29.74	0.03	7.73
43.564	22.81	31.35	-0.07	7.62
43.587	20.08	28.62	0.03	7.73
43.610	15.03	23.57	-0.05	7.64
43.632	14.84	23.38	0.00	7.69
43.655	17.44	25.98	0.03	7.72
43.678	17.11	25.66	-0.07	7.62
43.700	16.50	25.05	0.04	7.73
43.723	15.19	23.74	-0.05	7.64
43.745	13.34	21.89	0.00	7.70
43.768	11.68	20.23	0.02	7.71
43.791	10.24	18.78	-0.07	7.62
43.813	11.46	20.01	0.04	7.74
43.836	17.75	26.30	-0.05	7.64
43.859	21.70	30.24	0.01	7.70
43.881	22.79	31.33	0.02	7.71
43.904	19.12	27.66	-0.07	7.62
43.926	14.43	22.97	0.04	7.73
43.949	15.47	24.01	-0.05	7.64
43.972	17.55	26.09	0.01	7.71
43.994	16.88	25.42	0.01	7.70
44.017	16.31	24.86	0.00	7.70
44.047	14.41	22.96	-0.07	7.62
44.069	12.74	21.29	0.04	7.73
44.092	11.23	19.78	-0.06	7.64
44.114	9.84	18.38	0.02	7.71
44.137	13.21	21.75	0.00	7.70
44.160	19.43	27.97	-0.07	7.63
44.182	22.42	30.96	0.04	7.74
44.205	22.19	30.73	-0.06	7.63
44.228	17.46	26.00	0.01	7.71
44.250	13.97	22.52	-0.01	7.69
44.273	16.57	25.11	-0.07	7.63
44.295	17.41	25.96	0.04	7.74
44.318	16.64	25.19	-0.06	7.63
44.341	16.02	24.57	0.02	7.71
44.363	14.10	22.64	-0.01	7.68
44.386	12.59	21.13	-0.07	7.63
44.409	11.02	19.57	-0.01	7.68
44.438	10.15	18.69	0.04	7.73
44.461	15.43	23.98	-0.06	7.63
44.483	20.65	29.19	0.02	7.72
44.506	22.91	31.45	-0.02	7.67
44.528	21.25	29.79	-0.06	7.63
44.551	15.85	24.39	0.04	7.74
44.574	14.23	22.77	-0.06	7.63
44.596	17.05	25.59	0.02	7.71
44.619	17.11	25.65	-0.07	7.63
44.646	16.57	25.11	-0.03	7.66
44.668	15.40	23.95	-0.06	7.64
44.691	13.47	22.02	0.04	7.74
44.713	11.93	20.48	-0.07	7.63
44.736	10.49	19.04	0.02	7.72
44.759	10.93	19.48	-0.04	7.66
44.781	17.25	25.79	-0.04	7.65
44.804	21.40	29.95	0.04	7.73
44.827	22.68	31.23	-0.07	7.63
44.849	19.55	28.09	0.02	7.72
44.872	14.71	23.25	-0.05	7.65
44.894	15.15	23.70	-0.04	7.65
44.917	17.43	25.98	0.04	7.74
44.940	17.01	25.55	-0.07	7.62
44.962	16.42	24.96	0.03	7.72
44.985	15.02	23.57	-0.05	7.64
45.008	13.17	21.71	-0.04	7.66
45.030	11.66	20.21	0.04	7.73
45.053	10.24	18.78	-0.07	7.62
45.075	11.95	20.49	0.03	7.72
45.098	18.19	26.73	-0.05	7.65
45.121	22.00	30.55	-0.02	7.67
45.143	22.67	31.21	-0.04	7.65
45.173	18.02	26.56	0.03	7.73
45.196	14.11	22.65	-0.07	7.62
45.218	16.12	24.66	0.03	7.72
45.241	17.46	26.00	-0.05	7.64
45.264	16.77	25.31	-0.02	7.68
45.286	16.18	24.73	0.03	7.72
45.309	14.32	22.86	-0.07	7.62
45.331	12.61	21.16	0.03	7.72
45.354	11.14	19.69	-0.05	7.65
45.377	9.97	18.51	-0.01	7.68
45.399	13.91	22.45	0.04	7.73
45.422	19.74	28.28	-0.07	7.62
45.445	22.63	31.18	0.04	7.73
45.467	22.09	30.64	-0.05	7.64
45.490	16.92	25.46	-0.00	7.69
45.513	13.97	22.52	0.03	7.72
45.535	16.53	25.08	-0.07	7.62
45.558	17.28	25.83	0.03	7.73
45.580	16.56	25.11	-0.05	7.64
45.603	16.01	24.55	0.00	7.70
45.626	14.00	22.55	0.02	7.71
45.648	12.46	21.00	-0.07	7.62
45.671	10.94	19.48	0.04	7.74
45.693	10.07	18.62	-0.05	7.64
45.716	15.39	23.94	0.04	7.74
45.745	21.13	29.68	-0.06	7.64
45.767	22.82	31.37	0.01	7.71
45.790	20.11	28.65	0.01	7.71
45.812	14.98	23.53	-0.07	7.63
45.835	14.69	23.24	0.04	7.74
45.857	17.34	25.89	-0.05	7.64
45.880	17.04	25.58	0.01	7.71
45.903	16.44	24.98	0.01	7.70
45.925	15.21	23.75	-0.07	7.62
45.948	13.30	21.84	0.04	7.74
45.971	11.70	20.25	-0.06	7.64
45.993	10.29	18.83	0.02	7.71
46.016	11.29	19.84	-0.00	7.69
46.038	17.55	26.09	-0.07	7.63
46.061	21.52	30.07	0.05	7.74
46.084	22.81	31.36	-0.06	7.63
46.106	19.14	27.69	0.02	7.71
46.129	14.44	22.98	-0.01	7.68
46.152	15.22	23.77	-0.06	7.63
46.174	17.50	26.05	0.04	7.73
46.197	16.92	25.46	-0.06	7.63
46.219	16.34	24.89	0.02	7.72
46.242	14.65	23.19	-0.02	7.67
46.265	12.79	21.33	0.02	7.71
46.295	11.30	19.85	-0.06	7.63
46.317	9.92	18.47	0.04	7.73
46.340	13.10	21.65	-0.06	7.63
46.362	19.26	27.80	0.02	7.72
46.385	22.31	30.85	-0.03	7.66
46.408	22.36	30.90	-0.06	7.64
46.430	17.45	26.00	0.04	7.74
46.453	13.94	22.49	-0.07	7.62
46.476	16.28	24.82	0.03	7.72
46.498	17.31	25.86	-0.04	7.65
46.521	16.68	25.22	-0.05	7.65
46.543	16.03	24.57	0.04	7.73
46.566	14.20	22.74	-0.07	7.62
46.589	12.53	21.08	0.02	7.72
46.611	11.07	19.62	-0.04	7.65
46.634	9.95	18.49	-0.05	7.65
46.657	14.42	22.96	0.04	7.73
46.679	20.09	28.63	-0.07	7.62
46.702	22.63	31.18	0.03	7.72
46.724	21.71	30.25	-0.05	7.65
46.747	16.50	25.04	-0.04	7.66
46.770	14.10	22.65	0.04	7.73
46.792	16.81	25.35	-0.07	7.63
46.815	17.37	25.91	0.04	7.73
46.844	16.62	25.16	0.03	7.72
46.866	15.64	24.19	-0.05	7.64
46.889	13.69	22.24	-0.03	7.67
46.911	12.12	20.67	0.03	7.73
46.934	10.60	19.14	-0.07	7.62
46.957	10.49	19.03	0.04	7.73
46.979	16.51	25.05	-0.05	7.64
47.002	21.05	29.59	-0.02	7.67
47.025	22.82	31.37	0.04	7.73
47.047	20.36	28.91	-0.07	7.63
47.070	15.09	23.64	0.03	7.73
47.099	14.97	23.51	0.03	7.73
47.122	17.42	25.97	-0.05	7.64
47.144	17.07	25.62	-0.01	7.68
47.167	16.44	24.98	0.04	7.73
47.190	15.01	23.55	-0.07	7.62
47.212	13.22	21.76	0.03	7.73
47.235	11.69	20.24	-0.05	7.64
47.257	10.24	18.78	-0.01	7.69
47.280	11.78	20.33	0.03	7.73
47.303	18.07	26.62	-0.07	7.62
47.325	22.01	30.55	0.04	7.73
47.348	22.77	31.31	-0.05	7.64
47.371	18.72	27.26	0.01	7.70
47.393	14.20	22.74	0.02	7.72
47.416	15.69	24.24	0.03	7.73
47.442	17.22	25.77	-0.07	7.62
47.463	16.67	25.21	0.01	7.70
47.486	15.70	24.25	0.02	7.71
47.508	13.75	22.30	-0.07	7.62
47.531	12.12	20.67	0.04	7.73
47.554	10.79	19.34	-0.05	7.64
47.576	10.31	18.85	0.01	7.71
47.599	15.91	24.45	0.01	7.70
47.622	20.81	29.35	-0.07	7.63
47.644	22.76	31.30	0.04	7.74
47.667	20.69	29.24	-0.06	7.63
47.689	15.39	23.94	0.01	7.71
47.712	14.46	23.01	0.01	7.70
47.735	17.17	25.72	-0.07	7.62
47.757	17.04	25.59	0.04	7.74
47.780	16.52	25.07	-0.06	7.63
47.803	15.41	23.95	0.02	7.71
47.825	13.45	22.00	-0.00	7.69
47.848	11.92	20.47	-0.07	7.62
47.870	10.44	18.98	0.04	7.74
47.893	10.87	19.42	-0.06	7.63
47.916	17.11	25.65	0.02	7.71
47.938	21.55	30.09	-0.07	7.63
47.967	22.72	31.27	-0.01	7.68
47.990	19.10	27.65	-0.07	7.63
48.012	14.42	22.97	0.04	7.74
48.035	15.46	24.00	-0.06	7.63
48.057	17.53	26.07	0.02	7.71
48.080	17.00	25.54	-0.02	7.68
48.103	16.41	24.96	-0.06	7.63
48.125	14.77	23.32	0.04	7.74
48.148	13.12	21.67	-0.06	7.63
48.170	11.66	20.20	0.02	7.71
48.193	10.26	18.80	-0.02	7.67
48.216	12.62	21.17	-0.06	7.63
48.238	18.82	27.36	0.05	7.74
48.261	22.28	30.82	-0.07	7.63
48.284	22.78	31.33	0.02	7.72
48.306	18.19	26.74	-0.03	7.66
48.329	14.19	22.74	-0.06	7.64
48.351	16.23	24.78	0.04	7.74
48.374	17.55	26.10	-0.07	7.63
48.397	16.90	25.45	0.05	7.74
48.426	16.09	24.63	0.02	7.72
48.449	14.34	22.89	-0.04	7.65
48.471	12.70	21.25	-0.05	7.65
48.494	11.26	19.81	0.04	7.73
48.517	10.10	18.65	-0.07	7.62
48.539	14.66	23.20	0.02	7.72
48.562	20.33	28.88	-0.07	7.63
48.592	22.86	31.41	-0.04	7.65
48.614	21.47	30.01	-0.04	7.65
48.637	16.03	24.57	0.04	7.74
48.659	14.36	22.90	-0.07	7.62
48.682	17.22	25.77	0.03	7.72
48.705	17.28	25.83	-0.05	7.65
48.727	16.51	25.06	-0.04	7.66
48.750	15.78	24.33	0.04	7.73
48.773	13.83	22.37	-0.07	7.62
48.795	12.22	20.77	0.03	7.72
48.818	10.71	19.26	-0.05	7.65
48.840	10.65	19.19	-0.03	7.67
48.863	16.61	25.15	0.04	7.73
48.886	21.28	29.82	-0.07	7.62
48.908	23.11	31.66	0.03	7.73
48.931	20.48	29.02	-0.05	7.64
48.954	15.35	23.89	-0.02	7.67
48.976	14.82	23.37	0.03	7.73
48.999	17.58	26.13	-0.07	7.63
49.021	17.26	25.81	0.03	7.73
49.044	16.49	25.04	-0.07	7.62
49.073	15.25	23.79	-0.05	7.64
49.095	13.24	21.79	-0.02	7.67
49.118	11.72	20.27	0.03	7.73
49.140	10.28	18.82	-0.07	7.62
49.163	11.93	20.48	0.03	7.73
49.186	18.22	26.76	-0.05	7.64
49.208	21.81	30.36	-0.01	7.68
49.231	22.72	31.27	0.03	7.73
49.254	18.86	27.40	-0.07	7.62
49.276	14.33	22.88	0.03	7.73
49.299	15.72	24.26	-0.05	7.64
49.321	17.56	26.11	-0.01	7.69
49.344	16.95	25.50	0.03	7.73
49.367	16.43	24.98	-0.07	7.62
49.389	14.77	23.32	0.04	7.73
49.412	12.97	21.52	-0.05	7.64
49.435	11.43	19.98	-0.00	7.69
49.457	10.09	18.64	0.03	7.72
49.480	13.17	21.71	-0.07	7.62
49.502	19.30	27.84	0.04	7.73
49.525	22.39	30.93	-0.05	7.65
49.548	22.47	31.01	0.00	7.70
49.570	17.79	26.34	0.02	7.72
49.593	14.14	22.69	-0.07	7.62
49.615	16.51	25.05	0.04	7.73
49.638	17.57	26.12	-0.05	7.64
49.661	16.76	25.30	0.01	7.70
49.683	16.21	24.75	0.02	7.72
49.706	14.31	22.85	-0.01	7.69
49.736	12.60	21.14	-0.07	7.62
49.758	11.04	19.59	0.04	7.73
49.781	10.16	18.70	-0.05	7.64
49.804	15.09	23.63	0.01	7.70
49.826	20.50	29.05	0.01	7.71
49.849	22.85	31.40	-0.07	7.63
49.871	21.40	29.94	0.04	7.73
49.894	16.09	24.64	-0.06	7.64
49.917	14.29	22.83	0.01	7.71
49.939	17.10	25.64	0.01	7.70
49.962	17.29	25.84	-0.07	7.62
49.985	16.64	25.18	0.04	7.74
50.007	15.80	24.34	-0.06	7.64
50.030	13.88	22.43	0.01	7.71
50.052	12.32	20.86	0.00	7.70
50.075	10.78	19.32	-0.07	7.62
50.098	10.46	19.01	0.04	7.74
50.120	16.40	24.94	-0.06	7.63
50.143	21.02	29.56	0.02	7.71
50.166	22.77	31.31	-0.07	7.63
50.194	20.01	28.56	-0.00	7.69
50.217	15.02	23.56	-0.07	7.63
50.239	15.09	23.64	0.04	7.74
50.262	17.44	25.99	-0.06	7.63
50.285	17.06	25.61	0.02	7.71
50.307	16.38	24.93	-0.01	7.68
50.330	15.16	23.70	-0.07	7.63
50.352	13.32	21.86	0.04	7.74
50.375	11.76	20.31	-0.06	7.63
50.398	10.23	18.77	0.02	7.71
50.420	11.66	20.20	-0.02	7.68
50.443	17.99	26.53	-0.06	7.63
50.466	22.02	30.57	0.04	7.74
50.488	22.90	31.44	-0.06	7.63
50.511	18.97	27.51	0.02	7.72
50.533	14.41	22.95	-0.02	7.67
50.556	15.55	24.10	-0.06	7.63
50.579	17.51	26.06	0.04	7.73
50.601	16.94	25.48	-0.07	7.63
50.624	16.34	24.89	0.02	7.71
50.647	14.81	23.36	-0.03	7.66
50.669	13.01	21.56	-0.06	7.63
50.692	11.53	20.07	0.04	7.74
50.714	10.11	18.66	-0.07	7.62
50.737	12.87	21.42	0.02	7.72
50.760	19.01	27.56	-0.03	7.66
50.782	22.43	30.98	-0.05	7.64
50.805	22.58	31.13	0.04	7.74
50.828	17.78	26.32	-0.07	7.63
50.857	14.07	22.62	-0.07	7.62
50.880	16.55	25.10	0.03	7.72
50.903	17.40	25.94	-0.04	7.65
50.925	16.59	25.14	-0.05	7.65
50.948	16.10	24.65	0.04	7.73
50.971	14.16	22.71	-0.07	7.62
50.993	12.54	21.08	0.02	7.71
51.016	11.05	19.60	-0.04	7.65
51.038	10.07	18.62	-0.04	7.65
51.061	15.12	23.67	-0.04	7.65
51.090	20.74	29.29	0.04	7.73
51.113	22.81	31.35	-0.07	7.62
51.136	21.05	29.59	0.03	7.72
51.158	15.86	24.40	-0.04	7.65
51.181	14.40	22.95	-0.03	7.66
51.204	17.26	25.80	0.04	7.73
51.226	17.23	25.77	-0.07	7.62
51.249	16.60	25.15	0.03	7.72
51.271	15.72	24.26	-0.05	7.65
51.294	13.58	22.13	0.04	7.73
51.323	12.11	20.65	-0.03	7.67
51.345	10.61	19.15	0.03	7.73
51.368	11.28	19.83	-0.07	7.62
51.393	17.83	26.38	-0.01	7.68
51.420	22.04	30.58	0.03	7.73
51.443	23.17	31.72	-0.05	7.64
51.466	19.23	27.77	-0.02	7.67
51.488	14.71	23.25	0.04	7.73
51.511	15.96	24.50	-0.07	7.62
51.534	17.78	26.33	0.03	7.73
51.556	17.17	25.71	-0.05	7.64
51.579	16.46	25.00	-0.02	7.68
51.601	15.16	23.70	0.03	7.73
51.624	13.15	21.69	-0.07	7.62
51.647	11.67	20.22	0.03	7.73
51.669	10.23	18.77	-0.05	7.64
51.692	13.16	21.71	-0.01	7.68
51.715	19.34	27.89	0.04	7.73
51.737	22.48	31.03	-0.07	7.62
51.760	22.74	31.28	0.03	7.73
51.782	18.08	26.62	-0.05	7.64
51.805	14.37	22.91	-0.01	7.69
51.828	16.51	25.05	0.03	7.73
51.850	17.68	26.22	-0.07	7.62
51.873	16.88	25.43	0.03	7.73
51.896	16.30	24.84	-0.05	7.64
51.918	14.74	23.29	-0.00	7.69
51.941	12.82	21.36	0.03	7.72
51.963	11.37	19.92	-0.02	7.67
51.993	10.24	18.79	-0.07	7.62
52.016	15.09	23.63	0.04	7.73
52.039	20.48	29.03	-0.05	7.65
52.061	23.00	31.55	0.00	7.70
52.084	21.62	30.17	0.02	7.72
52.106	16.46	25.01	-0.07	7.62
52.129	14.41	22.96	0.04	7.73
52.152	17.31	25.85	-0.05	7.64
52.174	17.56	26.11	0.01	7.70
52.197	16.75	25.30	0.02	7.71
52.220	16.06	24.60	-0.07	7.63
52.242	14.05	22.59	0.04	7.73
52.265	12.29	20.84	-0.05	7.64
52.287	10.97	19.51	0.01	7.71
52.310	10.57	19.12	0.01	7.71
52.333	16.68	25.22	0.02	7.72
52.361	21.40	29.95	-0.07	7.62
52.384	22.93	31.48	0.04	7.74
52.406	18.11	26.65	-0.07	7.63
52.432	14.31	22.86	0.01	7.70
52.455	16.63	25.18	-0.07	7.63
52.477	17.71	26.25	0.04	7.74
52.500	16.87	25.42	-0.05	7.64
52.523	16.29	24.84	0.01	7.71
52.545	14.55	23.09	0.00	7.69
52.568	12.78	21.33	-0.07	7.62
52.590	11.38	19.92	0.04	7.73
52.613	10.22	18.77	-0.06	7.63
52.636	14.59	23.13	0.02	7.71
52.658	20.35	28.90	-0.00	7.69
52.681	22.84	31.38	-0.06	7.63
52.704	22.03	30.57	0.04	7.74
52.726	16.77	25.32	-0.06	7.63
52.749	14.21	22.76	0.02	7.71
52.771	17.10	25.64	-0.01	7.68
52.794	17.48	26.03	-0.07	7.63
52.817	16.73	25.27	0.04	7.74
52.839	16.09	24.63	-0.06	7.63
52.862	14.19	22.74	0.02	7.71
52.884	12.56	21.11	-0.02	7.68
52.907	11.14	19.69	-0.07	7.63
52.930	10.44	18.99	0.04	7.74
52.952	15.88	24.42	-0.06	7.63
52.975	20.98	29.52	0.02	7.71
52.998	23.12	31.66	-0.02	7.67
53.020	21.14	29.68	-0.06	7.63
53.043	15.89	24.44	0.04	7.74
53.065	14.52	23.07	-0.06	7.63
53.088	17.39	25.94	0.04	7.74
53.118	17.32	25.87	0.02	7.71
53.141	16.68	25.22	-0.03	7.67
53.163	15.56	24.10	-0.06	7.64
53.186	13.57	22.11	0.04	7.74
53.208	12.06	20.61	-0.07	7.62
53.231	10.63	19.17	0.02	7.72
53.254	11.41	19.96	-0.03	7.66
53.276	17.65	26.20	-0.05	7.64
53.299	21.79	30.34	0.04	7.73
53.322	23.00	31.55	-0.07	7.63
53.344	19.74	28.29	0.02	7.72
53.367	14.88	23.43	-0.04	7.65
53.389	15.45	24.00	-0.04	7.65
53.412	17.66	26.21	0.04	7.74
53.435	17.14	25.68	-0.02	7.67
53.463	16.40	24.94	-0.07	7.62
53.486	15.02	23.56	0.03	7.72
53.509	13.18	21.73	-0.04	7.65
53.531	11.65	20.19	-0.04	7.65
53.554	10.33	18.87	0.04	7.73
53.576	13.23	21.77	-0.07	7.62
53.599	19.32	27.87	0.03	7.72
53.622	22.67	31.22	-0.05	7.65
53.644	22.69	31.24	-0.03	7.66
53.667	18.06	26.60	0.04	7.73
53.689	14.36	22.90	-0.07	7.62
53.712	16.51	25.05	0.03	7.72
53.735	17.69	26.24	-0.07	7.63
53.764	16.82	25.37	-0.05	7.64
53.787	16.20	24.75	-0.03	7.67
53.809	14.49	23.04	0.04	7.73
53.832	12.70	21.25	-0.07	7.62
53.855	11.20	19.74	0.03	7.73
53.877	10.28	18.83	-0.05	7.65
53.900	15.15	23.69	-0.01	7.68
53.922	20.58	29.13	0.03	7.73
53.945	22.97	31.51	-0.07	7.62
53.968	21.67	30.22	0.03	7.72
53.990	16.46	25.01	-0.05	7.64
54.013	14.39	22.93	-0.00	7.69
54.036	17.28	25.83	0.03	7.73
54.058	17.50	26.05	-0.07	7.62
54.081	16.78	25.33	0.04	7.73
54.103	16.07	24.61	-0.05	7.64
54.126	14.03	22.58	0.00	7.69
54.149	12.41	20.96	0.02	7.72
54.171	11.00	19.54	-0.07	7.62
54.194	10.61	19.15	0.04	7.73
54.216	16.41	24.95	-0.05	7.64
54.239	21.27	29.81	0.04	7.73
54.269	22.95	31.49	0.01	7.70
54.292	20.17	28.71	0.02	7.71
54.314	15.19	23.74	-0.07	7.63
54.337	15.19	23.74	0.04	7.73
54.360	17.62	26.17	-0.05	7.64
54.382	17.17	25.72	0.01	7.70
54.405	16.51	25.06	0.01	7.70
54.427	15.36	23.90	-0.07	7.62
54.450	13.51	22.06	0.04	7.74
54.473	11.94	20.49	-0.06	7.64
54.495	10.53	19.07	0.01	7.71
54.518	11.81	20.35	0.01	7.70
54.540	18.09	26.63	-0.07	7.63
54.563	22.01	30.55	0.04	7.74
54.586	22.99	31.54	0.00	7.70
54.612	18.65	27.19	-0.06	7.63
54.635	14.44	22.99	0.01	7.71
54.658	16.25	24.80	-0.01	7.69
54.680	17.67	26.22	-0.07	7.63
54.703	17.06	25.60	0.04	7.73
54.726	16.52	25.06	-0.07	7.63
54.748	14.85	23.39	0.02	7.72
54.771	13.06	21.60	-0.01	7.68
54.793	11.56	20.10	-0.07	7.63
54.816	10.16	18.70	0.04	7.74
54.839	13.63	22.18	-0.06	7.63
54.861	19.61	28.15	0.02	7.71
54.884	22.60	31.14	-0.02	7.67
54.907	22.51	31.05	-0.06	7.63
54.929	17.54	26.09	0.04	7.73
54.952	14.31	22.86	-0.07	7.63
54.974	16.71	25.26	0.02	7.71
54.997	17.58	26.13	-0.02	7.67
55.020	16.76	25.31	-0.06	7.63
55.042	16.23	24.78	0.04	7.74
55.065	14.39	22.94	-0.07	7.62
55.087	12.72	21.27	0.02	7.71
55.110	11.28	19.83	-0.03	7.66
55.132	10.20	18.75	-0.06	7.64
55.155	14.93	23.48	0.04	7.74
55.177	20.43	28.98	-0.07	7.63
55.200	22.98	31.52	0.02	7.72
55.223	21.77	30.32	-0.04	7.66
55.245	16.55	25.09	-0.05	7.65
55.268	14.36	22.91	0.04	7.74
55.291	17.24	25.79	-0.07	7.63
55.313	17.52	26.07	0.02	7.71
55.336	16.74	25.29	-0.04	7.66
55.358	15.85	24.39	0.03	7.72
55.383	13.84	22.38	-0.05	7.65
55.406	12.29	20.83	0.04	7.74
55.429	10.82	19.37	-0.07	7.62
55.451	10.88	19.43	0.02	7.72
55.474	16.86	25.40	-0.04	7.65
55.496	21.36	29.91	-0.04	7.65
55.519	23.11	31.65	0.04	7.73
55.542	20.55	29.10	-0.07	7.62
55.564	15.33	23.88	0.02	7.72
55.587	15.12	23.67	-0.04	7.65
55.609	17.60	26.15	-0.04	7.65
55.632	17.30	25.84	0.04	7.73
55.655	16.66	25.20	-0.07	7.62
55.677	15.44	23.99	0.03	7.73
55.706	13.45	22.00	0.03	7.72
55.728	11.85	20.40	-0.05	7.65
55.751	10.41	18.96	-0.04	7.66
55.774	12.28	20.82	0.04	7.73
55.796	18.72	27.26	-0.07	7.62
55.819	22.27	30.82	0.03	7.73
55.841	22.91	31.45	-0.05	7.65
55.864	18.84	27.38	-0.03	7.66
55.887	14.52	23.06	0.04	7.73
55.909	16.06	24.61	-0.07	7.62
55.932	17.73	26.28	0.03	7.72
55.955	17.07	25.62	-0.05	7.65
55.977	16.31	24.85	-0.03	7.66
56.000	15.03	23.58	0.03	7.73
56.022	13.15	21.69	-0.07	7.62
56.045	11.68	20.22	0.03	7.72
56.068	10.32	18.87	-0.05	7.65
56.090	13.52	22.06	-0.03	7.66
56.113	19.61	28.15	0.04	7.73
56.136	22.64	31.19	-0.07	7.62
56.158	22.64	31.18	0.03	7.72
56.181	17.74	26.29	-0.05	7.64
56.203	14.32	22.87	-0.03	7.67
56.226	16.57	25.12	0.04	7.73
56.249	17.68	26.23	-0.08	7.62
56.271	16.96	25.50	0.03	7.72
56.294	16.31	24.85	-0.05	7.65
56.317	14.56	23.10	-0.03	7.67
56.339	12.79	21.33	0.03	7.73
56.362	11.34	19.88	-0.07	7.62
56.384	10.32	18.86	0.04	7.73
56.414	15.53	24.07	0.03	7.72
56.436	20.72	29.26	-0.05	7.65
56.459	22.87	31.42	-0.02	7.67
56.482	21.43	29.97	0.04	7.73
56.504	16.05	24.60	-0.05	7.65
56.534	14.73	23.28	-0.07	7.62
56.562	17.57	26.11	0.00	7.70
56.589	17.26	25.80	0.03	7.73
56.612	16.57	25.11	-0.05	7.64
56.635	15.62	24.17	-0.02	7.67
56.657	13.62	22.17	0.04	7.73
56.680	12.03	20.57	-0.07	7.62
56.703	10.58	19.13	0.03	7.73
56.725	11.70	20.25	-0.05	7.64
56.748	17.99	26.54	-0.02	7.67
56.770	22.02	30.56	0.04	7.73
56.793	22.97	31.52	0.00	7.69
56.822	18.84	27.39	-0.07	7.62
56.844	14.45	22.99	0.03	7.73
56.867	16.06	24.60	-0.05	7.65
56.889	17.73	26.28	-0.02	7.67
56.912	17.09	25.63	0.04	7.73
56.935	16.44	24.99	-0.07	7.62
56.957	14.93	23.48	0.03	7.73
56.980	13.12	21.67	-0.05	7.64
57.002	11.62	20.17	-0.02	7.67
57.025	10.22	18.77	0.03	7.73
57.048	13.46	22.00	-0.07	7.62
57.070	19.61	28.16	0.03	7.73
57.093	22.71	31.26	-0.05	7.65
57.116	22.63	31.18	-0.02	7.67
57.138	17.79	26.34	0.03	7.73
57.161	14.32	22.87	-0.07	7.62
57.183	16.71	25.25	0.03	7.73
57.206	17.69	26.23	-0.05	7.64
57.229	16.94	25.49	-0.02	7.67
57.251	16.33	24.87	0.04	7.73
57.274	14.53	23.07	-0.07	7.62
57.297	12.84	21.39	0.03	7.72
57.319	11.37	19.92	-0.05	7.64
57.342	10.21	18.75	-0.02	7.67
57.364	14.74	23.28	0.03	7.73
57.387	20.34	28.89	-0.07	7.62
57.410	22.85	31.39	0.03	7.73
57.432	21.89	30.43	-0.05	7.64
57.455	16.75	25.30	-0.02	7.68
57.478	14.43	22.97	0.03	7.73
57.500	17.18	25.73	-0.07	7.62
57.523	17.56	26.10	0.03	7.73
57.545	16.82	25.36	-0.05	7.64
57.568	16.01	24.55	-0.02	7.67
57.591	14.17	22.72	0.03	7.73
57.613	12.62	21.16	-0.07	7.62
57.636	11.09	19.63	0.03	7.73
57.659	10.56	19.10	-0.07	7.62
57.688	16.73	25.27	-0.05	7.64
57.711	21.32	29.86	-0.02	7.68
57.734	23.19	31.73	-0.05	7.64
57.763	20.05	28.59	0.03	7.73
57.786	15.08	23.63	-0.07	7.62
57.808	15.30	23.84	0.03	7.73
57.831	17.69	26.24	-0.05	7.64
57.854	17.22	25.76	-0.02	7.67
57.876	16.55	25.09	0.04	7.73
57.899	14.15	22.69	0.02	7.71
57.926	12.39	20.93	-0.07	7.62
57.948	11.06	19.60	0.03	7.72
57.971	10.03	18.58	-0.05	7.64
57.993	9.82	18.36	-0.02	7.68
58.016	9.67	18.22	0.03	7.73
58.039	9.60	18.15	-0.07	7.62
58.061	9.58	18.13	0.03	7.73
58.084	9.63	18.17	-0.05	7.64
58.107	9.60	18.14	-0.02	7.67
58.129	9.56	18.10	0.04	7.73
58.152	9.61	18.16	-0.07	7.62
58.174	9.60	18.14	0.03	7.73
58.197	9.60	18.14	-0.05	7.64
58.220	9.60	18.15	-0.02	7.67
58.242	9.59	18.14	0.03	7.73
58.265	9.58	18.13	-0.07	7.62
58.288	9.60	18.15	0.03	7.73
58.310	9.59	18.14	-0.05	7.65
58.333	9.59	18.13	-0.02	7.67
58.355	9.58	18.12	0.04	7.73
58.378	9.59	18.13	-0.07	7.62
58.401	9.59	18.13	0.03	7.73
58.423	9.55	18.09	-0.05	7.64
58.446	9.55	18.10	-0.02	7.67
58.469	9.53	18.08	0.03	7.73
58.491	9.56	18.10	-0.07	7.62
58.514	9.59	18.14	0.03	7.72
58.536	9.57	18.11	-0.05	7.64
58.559	9.59	18.13	-0.03	7.67
58.582	9.60	18.14	0.04	7.73
58.604	9.51	18.05	-0.07	7.62
58.627	9.54	18.09	0.03	7.72
58.650	9.54	18.08	-0.05	7.64
58.672	9.53	18.07	-0.03	7.67
58.695	9.51	18.06	0.04	7.73
58.717	9.52	18.07	-0.07	7.62
58.740	9.54	18.08	0.03	7.72
58.763	9.49	18.04	-0.05	7.64
58.785	9.49	18.03	0.02	7.71
58.815	9.52	18.07	-0.03	7.66
58.838	9.57	18.11	0.04	7.73
58.860	9.52	18.07	-0.07	7.62
58.883	9.51	18.06	0.03	7.72
58.906	9.53	18.07	-0.05	7.64
58.928	9.49	18.04	-0.03	7.66
58.951	9.44	17.99	0.04	7.73
58.973	9.55	18.09	-0.07	7.62
58.996	9.50	18.04	0.03	7.72
59.026	9.48	18.03	0.01	7.70
59.051	9.46	18.01	-0.05	7.64
59.074	9.48	18.03	-0.03	7.66
59.097	9.51	18.06	-0.05	7.65
59.126	9.53	18.08	0.04	7.73
59.149	9.53	18.08	-0.07	7.62
59.171	9.53	18.08	0.03	7.72
59.194	9.53	18.08	-0.05	7.65
59.216	9.54	18.09	-0.03	7.66
59.239	9.54	18.08	0.04	7.73
59.262	9.57	18.11	-0.07	7.63
59.284	9.59	18.13	0.03	7.72
59.307	9.52	18.06	-0.05	7.65
59.330	9.57	18.12	-0.03	7.66
59.352	9.55	18.10	0.04	7.73
59.375	9.56	18.10	-0.07	7.62
59.397	9.55	18.09	0.03	7.72
59.420	9.50	18.05	-0.05	7.65
59.443	9.55	18.09	-0.04	7.66
59.465	9.52	18.06	0.04	7.73
59.488	9.51	18.05	-0.07	7.62
59.511	9.58	18.13	0.02	7.72
59.533	9.54	18.09	-0.05	7.65
59.556	9.51	18.06	-0.04	7.66
59.578	9.54	18.08	0.04	7.73
59.601	9.55	18.09	-0.08	7.62
59.624	9.54	18.09	0.03	7.72
59.646	9.56	18.10	-0.04	7.65
59.669	9.56	18.10	-0.04	7.66
59.692	9.57	18.11	0.04	7.73
59.714	9.55	18.10	-0.08	7.62
59.737	9.55	18.09	0.03	7.72
59.759	9.56	18.11	-0.05	7.65
59.782	9.54	18.09	-0.04	7.66
59.805	9.55	18.09	0.04	7.73
59.827	9.58	18.12	-0.08	7.62
59.850	9.59	18.14	0.03	7.72
59.872	9.53	18.08	-0.05	7.65
59.895	9.51	18.06	-0.04	7.65
59.918	9.51	18.05	0.03	7.73
59.940	9.52	18.07	-0.06	7.64
59.970	9.48	18.03	-0.08	7.62
59.993	9.53	18.08	0.02	7.72
60.016	9.53	18.08	-0.04	7.65
60.038	9.54	18.09	-0.04	7.65
60.061	9.52	18.07	0.04	7.73
60.083	9.53	18.08	-0.07	7.62
60.106	9.53	18.08	0.02	7.72
60.129	9.53	18.08	-0.05	7.65
60.151	9.50	18.05	0.03	7.73
60.180	9.53	18.08	-0.04	7.65
60.203	9.56	18.11	0.04	7.73
60.225	9.53	18.07	-0.07	7.62
60.248	9.53	18.08	0.02	7.72
60.270	9.53	18.07	-0.04	7.65
60.293	9.54	18.08	-0.04	7.65
60.316	9.54	18.09	0.04	7.73
60.338	9.53	18.08	-0.08	7.62
60.361	9.54	18.09	0.03	7.72
60.384	9.48	18.03	-0.05	7.65
60.406	9.51	18.06	-0.04	7.65
60.429	9.47	18.02	-0.04	7.65
60.458	9.49	18.03	0.04	7.73
60.481	9.46	18.01	-0.08	7.62
60.503	9.43	17.98	0.02	7.72
60.526	9.48	18.02	-0.04	7.65
60.549	9.49	18.04	-0.04	7.65
60.571	9.48	18.02	0.04	7.73
60.594	9.47	18.02	-0.07	7.62
60.617	9.51	18.05	0.03	7.72
60.639	9.50	18.05	-0.04	7.65
60.662	9.51	18.06	-0.04	7.65
60.684	9.53	18.07	0.03	7.73
60.707	9.48	18.02	-0.08	7.62
60.730	9.45	17.99	0.02	7.72
60.752	9.47	18.01	-0.05	7.65
60.775	9.49	18.04	-0.04	7.65
60.798	9.46	18.01	0.04	7.73
60.820	8.95	17.49	-0.08	7.62
60.843	0.78	9.33	0.02	7.71
60.865	-2.16	6.38	-0.04	7.65
60.888	-1.02	7.53	-0.04	7.65
60.911	0.88	9.43	0.04	7.73
60.933	1.46	10.00	-0.07	7.62
60.956	0.48	9.03	0.02	7.72
60.979	-0.30	8.25	-0.05	7.65
61.001	-0.26	8.29	-0.04	7.65
61.024	0.33	8.88	0.04	7.73
61.046	0.59	9.13	-0.07	7.62
61.069	0.39	8.93	0.02	7.72
61.092	0.02	8.56	-0.07	7.63
61.122	0.00	8.55	-0.04	7.65
61.144	0.19	8.74	-0.05	7.65
61.167	0.32	8.87	0.04	7.73
61.189	0.26	8.80	-0.07	7.62
61.212	0.13	8.67	0.02	7.72
61.235	0.09	8.64	-0.04	7.65
61.257	0.16	8.71	-0.05	7.65
61.280	0.22	8.77	-0.05	7.64
61.308	0.21	8.76	0.04	7.73
61.331	0.16	8.70	-0.07	7.62
61.354	0.14	8.68	0.02	7.71
61.376	0.16	8.71	-0.04	7.65
61.399	0.19	8.74	-0.05	7.65
61.422	0.19	8.74	0.04	7.73
61.444	0.17	8.72	-0.07	7.62
61.467	0.16	8.70	0.02	7.71
61.489	0.16	8.71	-0.04	7.65
61.512	0.18	8.72	-0.05	7.65
61.535	0.18	8.73	0.04	7.73
61.557	0.17	8.72	-0.07	7.62
61.580	0.17	8.71	0.02	7.72
61.603	0.17	8.71	-0.04	7.65
61.625	0.17	8.72	-0.05	7.64
61.648	0.18	8.72	0.04	7.73
61.670	0.17	8.72	-0.07	7.62
61.693	0.17	8.72	0.02	7.72
61.716	0.17	8.72	-0.04	7.65
61.738	0.17	8.72	-0.05	7.64
61.761	0.17	8.72	-0.04	7.65
61.790	0.17	8.72	0.04	7.74
61.813	0.17	8.71	-0.07	7.62
61.836	0.16	8.71	0.02	7.71
61.858	0.15	8.70	-0.04	7.65
61.881	0.15	8.69	-0.06	7.64
61.903	0.15	8.69	0.04	7.73
61.926	0.17	8.71	-0.07	7.62
61.949	0.16	8.71	0.01	7.71
61.971	0.11	8.65	-0.04	7.66
