Tempo(s)    P0(KPa) P0+Coluna(KPa)  P1(KPa) P1+Coluna(KPa)  Vazao(L/min)    Pulsos
0.000	0.01	1.72	-0.00	7.63	0.000	0
0.032	0.01	1.72	-0.00	7.63	0.000	0
0.064	0.01	1.72	-0.00	7.63	0.000	0
0.096	0.01	1.72	-0.00	7.63	0.000	0
0.128	0.01	1.72	0.00	7.64	0.000	0
0.160	0.00	1.72	0.00	7.64	0.000	0
0.192	0.01	1.72	-0.00	7.63	0.000	0
0.224	0.01	1.72	-0.00	7.63	0.000	0
0.256	0.00	1.72	0.00	7.64	0.000	0
0.288	0.01	1.72	0.00	7.64	0.000	0
0.320	0.01	1.72	0.00	7.64	0.000	0
0.352	0.01	1.72	-0.01	7.63	0.000	0
0.384	0.01	1.72	-0.00	7.63	0.000	0
0.416	0.01	1.72	0.00	7.64	0.000	0
0.448	0.01	1.72	-0.00	7.63	0.000	0
0.480	0.01	1.72	0.00	7.64	0.000	0
0.512	0.01	1.72	-0.00	7.63	0.000	0
0.544	0.01	1.72	-0.00	7.63	0.000	0
0.576	0.01	1.72	-0.00	7.63	0.000	0
0.608	0.01	1.72	0.00	7.64	0.000	0
0.640	0.01	1.72	-0.00	7.63	0.000	0
0.672	0.01	1.73	-0.00	7.63	0.000	0
0.704	0.01	1.73	-0.00	7.63	0.000	0
0.736	0.01	1.72	0.00	7.64	0.000	0
0.768	0.01	1.72	0.00	7.64	0.000	0
0.800	0.01	1.72	0.00	7.64	0.000	0
0.832	0.01	1.72	-0.00	7.63	0.000	0
0.864	0.01	1.73	0.00	7.64	0.000	0
0.896	0.01	1.73	0.00	7.64	0.000	0
0.928	0.01	1.73	0.01	7.64	0.000	0
0.960	0.01	1.73	-0.00	7.63	0.000	0
0.992	0.01	1.73	-0.00	7.63	0.000	0
1.024	0.01	1.72	-0.00	7.63	0.000	0
1.056	0.01	1.72	0.00	7.64	0.000	0
1.088	0.01	1.73	0.00	7.64	0.000	0
1.120	0.01	1.73	0.00	7.64	0.000	0
1.152	0.01	1.73	0.00	7.64	0.000	0
1.184	0.01	1.73	-0.00	7.63	0.000	0
1.216	0.01	1.73	0.00	7.64	0.000	0
1.248	0.01	1.73	0.01	7.64	0.000	0
1.280	0.01	1.73	0.00	7.64	0.000	0
1.312	0.01	1.73	0.00	7.64	0.000	0
1.344	0.01	1.73	-0.00	7.63	0.000	0
1.376	0.01	1.73	-0.00	7.63	0.000	0
1.408	0.01	1.72	-0.00	7.63	0.000	0
1.440	0.01	1.72	-0.00	7.63	0.000	0
1.472	0.01	1.73	0.00	7.64	0.000	0
1.504	0.01	1.73	0.00	7.64	0.000	0
1.536	0.01	1.73	0.01	7.64	0.000	0
1.568	0.01	1.73	-0.00	7.63	0.000	0
1.600	0.01	1.73	0.00	7.64	0.000	0
1.632	0.01	1.73	0.00	7.64	0.000	0
1.664	0.01	1.73	0.00	7.64	0.000	0
1.696	0.01	1.73	0.00	7.64	0.000	0
1.728	0.01	1.73	0.00	7.64	0.000	0
1.760	0.01	1.73	-0.01	7.63	0.000	0
1.792	0.01	1.73	-0.00	7.63	0.000	0
1.824	0.01	1.73	0.00	7.64	0.000	0
1.856	0.01	1.73	0.00	7.64	0.000	0
1.888	0.01	1.73	0.00	7.64	0.000	0
1.920	0.01	1.73	-0.00	7.63	0.000	0
1.952	0.01	1.73	-0.00	7.63	0.000	0
1.984	0.01	1.73	-0.00	7.63	0.000	0
2.016	0.01	1.73	0.00	7.64	0.000	0
2.048	0.01	1.73	0.00	7.64	0.000	0
2.080	0.01	1.73	-0.00	7.63	0.000	0
2.112	0.01	1.73	-0.00	7.63	0.000	0
2.144	0.01	1.73	0.00	7.64	0.000	0
2.176	0.01	1.73	0.00	7.64	0.000	0
2.208	0.01	1.73	-0.01	7.63	0.000	0
2.240	0.01	1.73	0.00	7.64	0.000	0
2.272	0.01	1.73	-0.00	7.63	0.000	0
2.304	0.01	1.73	-0.00	7.63	0.000	0
2.336	0.01	1.73	0.01	7.64	0.000	0
2.368	0.01	1.73	0.00	7.64	0.000	0
2.400	0.01	1.73	-0.00	7.63	0.000	0
2.432	0.01	1.73	0.00	7.64	0.000	0
2.464	0.01	1.73	-0.00	7.63	0.000	0
2.496	0.01	1.73	0.00	7.64	0.000	0
2.528	0.01	1.73	-0.00	7.63	0.000	0
2.560	0.01	1.73	-0.00	7.63	0.000	0
2.592	0.01	1.73	-0.00	7.63	0.000	0
2.624	0.01	1.73	0.00	7.64	0.000	0
2.656	0.01	1.73	-0.00	7.63	0.000	0
2.688	0.01	1.73	-0.00	7.63	0.000	0
2.720	0.01	1.73	0.00	7.64	0.000	0
2.752	0.01	1.73	-0.00	7.63	0.000	0
2.784	0.01	1.73	-0.00	7.63	0.000	0
2.816	0.01	1.73	0.00	7.64	0.000	0
2.848	0.01	1.73	0.00	7.64	0.000	0
2.880	0.01	1.73	-0.00	7.63	0.000	0
2.912	0.01	1.73	0.00	7.64	0.000	0
2.944	0.01	1.73	0.01	7.64	0.000	0
2.976	0.01	1.73	-0.00	7.63	0.000	0
3.008	0.01	1.73	-0.00	7.63	0.000	0
3.040	0.01	1.73	-0.00	7.63	0.000	0
3.072	0.01	1.73	-0.00	7.63	0.000	0
3.104	0.02	1.73	0.00	7.64	0.000	0
3.136	0.63	2.35	0.00	7.64	0.000	0
3.168	2.14	3.86	0.00	7.64	0.000	0
3.200	3.92	5.64	0.01	7.64	0.000	0
3.232	5.69	7.41	0.01	7.64	0.000	0
3.264	7.20	8.92	0.01	7.64	0.000	0
3.296	8.60	10.31	0.01	7.64	0.000	0
3.328	9.80	11.52	0.00	7.64	0.000	0
3.360	10.85	12.56	0.01	7.64	0.000	0
3.392	11.76	13.48	0.01	7.64	0.000	0
3.424	12.61	14.33	0.01	7.65	0.000	0
3.456	13.33	15.04	0.01	7.64	0.000	0
3.488	13.94	15.65	0.00	7.64	0.000	0
3.520	14.43	16.15	-0.00	7.63	0.000	0
3.552	14.81	16.53	0.00	7.64	0.000	0
3.584	15.11	16.83	0.01	7.64	1.069	233
3.616	15.31	17.02	0.01	7.64	1.069	233
3.648	15.44	17.15	0.00	7.64	1.069	233
3.680	15.56	17.27	0.00	7.64	1.069	233
3.712	15.63	17.34	0.00	7.64	1.069	233
3.744	15.68	17.39	0.01	7.64	1.069	233
3.776	15.72	17.44	0.01	7.64	1.069	233
3.808	15.75	17.47	0.00	7.64	1.069	233
3.840	15.78	17.50	0.00	7.64	1.069	233
3.872	15.80	17.52	0.00	7.64	1.069	233
3.904	15.83	17.55	0.01	7.64	1.069	233
3.936	15.85	17.56	0.00	7.64	1.069	233
3.968	15.84	17.56	0.01	7.64	1.069	233
4.000	15.86	17.58	0.01	7.64	1.069	233
4.032	15.87	17.59	0.01	7.64	1.211	264
4.064	15.87	17.58	0.01	7.64	1.211	264
4.096	15.86	17.57	0.01	7.64	1.211	264
4.128	15.84	17.55	0.00	7.64	1.211	264
4.160	15.85	17.57	0.01	7.64	1.211	264
4.192	15.87	17.58	0.00	7.64	1.211	264
4.224	15.88	17.60	0.01	7.64	1.211	264
4.256	15.89	17.60	0.01	7.64	1.211	264
4.288	15.90	17.62	0.00	7.64	1.211	264
4.320	15.91	17.63	0.00	7.64	1.211	264
4.352	15.93	17.64	0.01	7.64	1.211	264
4.384	15.95	17.67	0.01	7.64	1.211	264
4.416	15.98	17.70	0.00	7.64	1.211	264
4.448	15.99	17.70	0.00	7.64	1.211	264
4.480	15.99	17.70	0.00	7.64	1.211	264
4.512	15.99	17.71	0.01	7.64	1.220	266
4.544	15.99	17.71	0.01	7.64	1.220	266
4.576	15.98	17.69	0.01	7.64	1.220	266
4.608	15.94	17.66	0.00	7.64	1.220	266
4.640	15.93	17.65	0.00	7.64	1.220	266
4.672	15.95	17.66	0.01	7.64	1.220	266
4.704	15.96	17.68	0.01	7.64	1.220	266
4.736	15.97	17.68	0.01	7.64	1.220	266
4.768	15.98	17.70	0.00	7.64	1.220	266
4.800	16.01	17.72	0.00	7.64	1.220	266
4.832	16.01	17.73	0.01	7.64	1.220	266
4.864	16.03	17.75	0.00	7.64	1.220	266
4.896	16.05	17.77	0.00	7.64	1.220	266
4.928	16.06	17.77	0.00	7.64	1.220	266
4.960	16.08	17.79	0.00	7.64	1.220	266
4.992	16.09	17.80	0.01	7.64	1.225	267
5.024	16.09	17.80	0.01	7.64	1.225	267
5.056	16.08	17.79	-0.00	7.63	1.225	267
5.088	16.04	17.76	0.01	7.64	1.225	267
5.120	16.03	17.75	0.01	7.64	1.225	267
5.152	16.04	17.75	0.01	7.64	1.225	267
5.184	16.04	17.76	0.01	7.64	1.225	267
5.216	16.05	17.77	0.00	7.64	1.225	267
5.248	16.05	17.77	-0.00	7.63	1.225	267
5.280	16.06	17.78	0.01	7.64	1.225	267
5.312	16.07	17.78	0.01	7.64	1.225	267
5.344	16.08	17.79	0.01	7.64	1.225	267
5.376	16.08	17.80	0.00	7.64	1.225	267
5.408	16.08	17.79	0.01	7.64	1.225	267
5.440	16.08	17.80	0.01	7.64	1.220	266
5.472	16.07	17.79	0.01	7.64	1.220	266
5.504	16.04	17.76	0.01	7.64	1.220	266
5.536	16.04	17.75	0.01	7.64	1.220	266
5.568	16.02	17.74	0.01	7.64	1.220	266
5.600	16.04	17.75	0.01	7.64	1.220	266
5.632	16.05	17.76	0.01	7.64	1.220	266
5.664	16.05	17.76	0.00	7.64	1.220	266
5.696	16.05	17.77	0.00	7.64	1.220	266
5.728	16.08	17.79	0.01	7.64	1.220	266
5.760	16.09	17.80	0.01	7.64	1.220	266
5.792	16.10	17.81	0.01	7.64	1.220	266
5.824	16.11	17.82	0.01	7.64	1.220	266
5.856	16.12	17.83	0.00	7.64	1.220	266
5.888	16.11	17.82	0.00	7.64	1.220	266
5.920	16.09	17.81	0.00	7.64	1.220	266
5.952	16.08	17.80	0.01	7.64	1.220	266
5.984	16.07	17.78	0.01	7.64	1.220	266
6.016	16.06	17.78	0.00	7.64	1.220	266
6.048	16.05	17.76	0.01	7.64	1.220	266
6.080	16.03	17.74	0.01	7.64	1.220	266
6.112	16.04	17.76	0.01	7.64	1.220	266
6.144	16.04	17.75	0.01	7.64	1.220	266
6.176	16.03	17.75	0.01	7.64	1.220	266
6.208	16.05	17.77	0.01	7.64	1.220	266
6.240	16.08	17.79	0.01	7.64	1.220	266
6.272	16.10	17.82	0.01	7.64	1.220	266
6.304	16.11	17.83	0.00	7.64	1.220	266
6.336	16.13	17.84	0.00	7.64	1.220	266
6.368	16.14	17.86	0.00	7.64	1.220	266
6.400	16.14	17.85	0.00	7.64	1.225	267
6.432	16.14	17.85	0.01	7.64	1.225	267
6.464	16.13	17.85	0.00	7.64	1.225	267
6.496	16.12	17.84	0.01	7.64	1.225	267
6.528	16.10	17.81	0.01	7.64	1.225	267
6.560	16.07	17.78	0.01	7.64	1.225	267
6.592	16.06	17.78	0.00	7.64	1.225	267
6.624	16.06	17.78	0.00	7.64	1.225	267
6.656	16.08	17.80	0.01	7.64	1.225	267
6.688	16.08	17.80	0.00	7.64	1.225	267
6.720	16.09	17.80	0.01	7.64	1.225	267
6.752	16.10	17.81	0.00	7.64	1.225	267
6.784	16.10	17.82	0.00	7.64	1.225	267
6.816	16.10	17.82	0.00	7.64	1.225	267
6.848	16.11	17.82	0.00	7.64	1.220	266
6.880	16.10	17.82	0.01	7.64	1.220	266
6.912	16.09	17.81	0.00	7.64	1.220	266
6.944	16.09	17.80	0.01	7.64	1.220	266
6.976	16.08	17.79	0.01	7.64	1.220	266
7.008	16.06	17.78	0.01	7.64	1.220	266
7.040	16.04	17.75	0.01	7.64	1.220	266
7.072	16.04	17.75	0.01	7.64	1.220	266
7.104	16.04	17.75	0.01	7.64	1.220	266
7.136	16.04	17.75	0.01	7.64	1.220	266
7.168	16.06	17.78	0.00	7.64	1.220	266
7.200	16.08	17.79	0.00	7.64	1.220	266
7.232	16.10	17.81	0.00	7.64	1.220	266
7.264	16.11	17.83	0.01	7.64	1.220	266
7.296	16.13	17.84	0.01	7.64	1.220	266
7.328	16.14	17.86	0.00	7.64	1.220	266
7.360	16.16	17.87	0.00	7.64	1.220	266
7.392	16.16	17.88	0.01	7.64	1.220	266
7.424	16.18	17.89	0.00	7.64	1.220	266
7.456	16.18	17.90	0.00	7.64	1.220	266
7.488	16.18	17.89	0.00	7.64	1.220	266
7.520	16.16	17.88	0.01	7.64	1.220	266
7.552	16.14	17.85	0.01	7.64	1.220	266
7.584	16.13	17.85	0.01	7.64	1.220	266
7.616	16.14	17.85	0.01	7.64	1.220	266
7.648	16.14	17.86	0.01	7.64	1.220	266
7.680	16.15	17.86	0.01	7.64	1.220	266
7.712	16.16	17.88	0.01	7.64	1.220	266
7.744	16.18	17.89	0.01	7.64	1.220	266
7.776	16.19	17.90	0.00	7.64	1.225	267
7.808	16.20	17.91	0.01	7.64	1.225	267
7.840	16.22	17.93	0.00	7.64	1.225	267
7.872	16.22	17.94	0.00	7.64	1.225	267
7.904	16.23	17.94	0.01	7.64	1.225	267
7.936	16.21	17.92	0.00	7.64	1.225	267
7.968	16.19	17.90	0.01	7.64	1.225	267
8.000	16.16	17.88	0.01	7.64	1.225	267
8.032	16.14	17.85	0.01	7.64	1.225	267
8.064	16.13	17.84	0.01	7.64	1.225	267
8.096	16.15	17.86	0.00	7.64	1.225	267
8.128	16.16	17.88	0.01	7.64	1.225	267
8.160	16.19	17.90	0.01	7.64	1.225	267
8.192	16.20	17.92	0.01	7.64	1.225	267
8.224	16.21	17.92	0.01	7.64	1.225	267
8.256	16.23	17.94	0.00	7.64	1.220	266
8.288	16.24	17.95	0.01	7.64	1.220	266
8.320	16.26	17.98	0.00	7.64	1.220	266
8.352	16.26	17.98	0.00	7.64	1.220	266
8.384	16.26	17.97	0.00	7.64	1.220	266
8.416	16.26	17.98	0.00	7.64	1.220	266
8.448	16.27	17.98	0.01	7.64	1.220	266
8.480	16.27	17.99	0.00	7.64	1.220	266
8.512	16.26	17.98	0.00	7.64	1.220	266
8.544	16.24	17.95	0.01	7.64	1.220	266
8.576	16.25	17.97	0.01	7.64	1.220	266
8.608	16.27	17.99	0.01	7.64	1.220	266
8.640	16.26	17.98	0.00	7.64	1.220	266
8.672	16.28	17.99	0.01	7.64	1.220	266
8.704	16.29	18.00	0.01	7.64	1.220	266
8.736	16.29	18.01	0.00	7.64	1.220	266
8.768	16.30	18.02	0.01	7.64	1.220	266
8.800	16.33	18.04	0.00	7.64	1.220	266
8.832	16.33	18.05	0.01	7.64	1.220	266
8.864	16.34	18.05	0.01	7.64	1.220	266
8.896	16.34	18.05	0.01	7.64	1.220	266
8.928	16.34	18.06	0.01	7.64	1.220	266
8.960	16.33	18.04	0.01	7.64	1.220	266
8.992	16.31	18.03	0.00	7.64	1.220	266
9.024	16.30	18.01	0.01	7.64	1.220	266
9.056	16.29	18.01	0.01	7.64	1.220	266
9.088	16.31	18.03	0.01	7.64	1.220	266
9.120	16.33	18.04	0.01	7.64	1.220	266
9.152	16.35	18.06	0.00	7.64	1.220	266
9.184	16.37	18.08	0.01	7.64	1.225	267
9.216	16.38	18.10	0.01	7.64	1.225	267
9.248	16.41	18.12	0.01	7.64	1.225	267
9.280	16.41	18.13	0.01	7.64	1.225	267
9.312	16.42	18.14	0.01	7.64	1.225	267
9.344	16.43	18.15	0.01	7.64	1.225	267
9.376	16.44	18.16	0.01	7.64	1.225	267
9.408	16.44	18.15	0.01	7.64	1.225	267
9.440	16.42	18.14	0.00	7.64	1.225	267
9.472	16.42	18.13	0.01	7.64	1.225	267
9.504	16.40	18.11	0.01	7.64	1.225	267
9.536	16.37	18.09	0.01	7.64	1.225	267
9.568	16.39	18.10	0.01	7.64	1.225	267
9.600	16.41	18.13	0.00	7.64	1.225	267
9.632	16.41	18.13	0.00	7.64	1.225	267
9.664	16.41	18.13	0.01	7.64	1.220	266
9.696	16.42	18.13	0.00	7.64	1.220	266
9.728	16.43	18.14	0.00	7.64	1.220	266
9.760	16.43	18.14	0.00	7.64	1.220	266
9.792	16.45	18.17	0.00	7.64	1.220	266
9.824	16.46	18.17	0.01	7.64	1.220	266
9.856	16.47	18.18	0.01	7.64	1.220	266
9.888	16.47	18.18	0.01	7.64	1.220	266
9.920	16.47	18.18	0.01	7.64	1.220	266
9.952	16.48	18.19	0.00	7.64	1.220	266
9.984	16.46	18.18	0.01	7.64	1.220	266
10.016	16.45	18.16	0.01	7.64	1.220	266
10.048	16.45	18.16	0.01	7.64	1.220	266
10.080	16.45	18.17	0.00	7.64	1.220	266
10.112	16.46	18.18	0.01	7.64	1.220	266
10.144	16.49	18.20	0.00	7.64	1.225	267
10.176	16.50	18.22	0.01	7.64	1.225	267
10.208	16.52	18.23	0.01	7.64	1.225	267
10.240	16.52	18.24	0.01	7.64	1.225	267
10.272	16.54	18.26	0.01	7.64	1.225	267
10.304	16.55	18.27	0.01	7.64	1.225	267
10.336	16.54	18.26	0.01	7.64	1.225	267
10.368	16.54	18.26	0.01	7.64	1.225	267
10.400	16.55	18.26	0.00	7.64	1.225	267
10.432	16.55	18.26	0.00	7.64	1.225	267
10.464	16.56	18.27	0.01	7.64	1.225	267
10.496	16.53	18.25	0.01	7.64	1.225	267
10.528	16.53	18.25	0.00	7.64	1.225	267
10.560	16.55	18.27	0.00	7.64	1.225	267
10.592	16.55	18.27	0.01	7.64	1.220	266
10.624	16.57	18.28	0.01	7.64	1.220	266
10.656	16.59	18.30	0.01	7.64	1.220	266
10.688	16.61	18.33	0.01	7.64	1.220	266
10.720	16.64	18.35	0.01	7.64	1.220	266
10.752	16.65	18.37	0.01	7.64	1.220	266
10.784	16.67	18.38	0.01	7.64	1.220	266
10.816	16.67	18.39	0.00	7.64	1.220	266
10.848	16.68	18.39	0.01	7.64	1.220	266
10.880	16.67	18.39	0.01	7.64	1.220	266
10.912	16.65	18.37	0.01	7.64	1.220	266
10.944	16.63	18.35	0.01	7.64	1.220	266
10.976	16.62	18.33	0.00	7.64	1.220	266
11.008	16.60	18.31	0.00	7.64	1.220	266
11.040	16.61	18.33	0.00	7.64	1.220	266
11.072	16.63	18.34	0.00	7.64	1.225	267
11.104	16.64	18.36	0.01	7.64	1.225	267
11.136	16.66	18.37	0.00	7.64	1.225	267
11.168	16.67	18.39	0.00	7.64	1.225	267
11.200	16.68	18.39	0.01	7.64	1.225	267
11.232	16.67	18.39	0.01	7.64	1.225	267
11.264	16.67	18.39	0.01	7.64	1.225	267
11.296	16.68	18.39	0.00	7.64	1.225	267
11.328	16.67	18.38	0.01	7.64	1.225	267
11.360	16.67	18.38	0.01	7.64	1.225	267
11.392	16.67	18.38	0.01	7.64	1.225	267
11.424	16.69	18.40	0.00	7.64	1.225	267
11.456	16.70	18.41	0.00	7.64	1.225	267
11.488	16.70	18.41	0.00	7.64	1.225	267
11.520	16.70	18.42	0.01	7.64	1.225	267
11.552	16.73	18.45	0.01	7.64	1.225	267
11.584	16.75	18.46	0.00	7.64	1.225	267
11.616	16.76	18.47	0.00	7.64	1.225	267
11.648	16.77	18.48	0.00	7.64	1.225	267
11.680	16.78	18.49	0.01	7.64	1.225	267
11.712	16.79	18.50	0.01	7.64	1.225	267
11.744	16.79	18.51	0.00	7.64	1.225	267
11.776	16.81	18.52	0.00	7.64	1.225	267
11.808	16.81	18.52	0.00	7.64	1.225	267
11.840	16.81	18.52	0.00	7.64	1.225	267
11.872	16.83	18.54	0.01	7.64	1.225	267
11.904	16.83	18.55	-0.00	7.63	1.225	267
11.936	16.83	18.54	0.00	7.64	1.225	267
11.968	16.80	18.52	0.00	7.64	1.225	267
12.000	16.79	18.51	0.00	7.64	1.225	267
12.032	16.81	18.52	0.01	7.64	1.225	267
12.064	16.82	18.53	0.01	7.64	1.225	267
12.096	16.84	18.55	0.01	7.64	1.225	267
12.128	16.86	18.57	0.01	7.64	1.225	267
12.160	16.87	18.59	0.01	7.64	1.225	267
12.192	16.88	18.59	0.01	7.64	1.225	267
12.224	16.88	18.59	0.01	7.64	1.225	267
12.256	16.89	18.60	0.00	7.64	1.225	267
12.288	16.89	18.60	0.00	7.64	1.225	267
12.320	16.88	18.59	0.00	7.64	1.225	267
12.352	16.88	18.59	0.01	7.64	1.225	267
12.384	16.88	18.59	0.00	7.64	1.225	267
12.416	16.87	18.58	0.00	7.64	1.225	267
12.448	16.87	18.59	0.01	7.64	1.225	267
12.480	16.85	18.57	0.01	7.64	1.229	268
12.512	16.87	18.58	0.01	7.64	1.229	268
12.544	16.90	18.61	0.01	7.64	1.229	268
12.576	16.91	18.63	0.00	7.64	1.229	268
12.608	16.93	18.65	0.00	7.64	1.229	268
12.640	16.94	18.66	0.01	7.64	1.229	268
12.672	16.96	18.67	0.01	7.64	1.229	268
12.704	16.97	18.69	0.00	7.64	1.229	268
12.736	16.97	18.69	0.00	7.64	1.229	268
12.768	16.97	18.69	0.00	7.64	1.229	268
12.800	16.96	18.68	0.01	7.64	1.229	268
12.832	16.96	18.68	0.01	7.64	1.229	268
12.864	16.95	18.67	0.01	7.64	1.229	268
12.896	16.95	18.67	0.01	7.64	1.229	268
12.928	16.94	18.66	0.01	7.64	1.225	267
12.960	16.93	18.65	0.01	7.64	1.225	267
12.992	16.92	18.64	0.01	7.64	1.225	267
13.024	16.93	18.65	0.00	7.64	1.225	267
13.056	16.93	18.64	0.01	7.64	1.225	267
13.088	16.93	18.64	0.01	7.64	1.225	267
13.120	16.92	18.64	0.01	7.64	1.225	267
13.152	16.93	18.64	0.00	7.64	1.225	267
13.184	16.93	18.65	0.00	7.64	1.225	267
13.216	16.93	18.65	0.00	7.64	1.225	267
13.248	16.93	18.65	0.00	7.64	1.225	267
13.280	16.93	18.64	0.01	7.64	1.225	267
13.312	16.92	18.63	0.01	7.64	1.225	267
13.344	16.92	18.63	0.00	7.64	1.225	267
13.376	16.92	18.63	0.01	7.64	1.225	267
13.408	16.91	18.63	0.00	7.64	1.225	267
13.440	16.91	18.62	0.01	7.65	1.225	267
13.472	16.91	18.62	0.01	7.64	1.225	267
13.504	16.92	18.63	0.01	7.64	1.225	267
13.536	16.93	18.64	0.00	7.64	1.225	267
13.568	16.96	18.67	0.00	7.64	1.225	267
13.600	16.97	18.68	0.01	7.64	1.225	267
13.632	16.97	18.68	0.01	7.64	1.225	267
13.664	16.99	18.70	0.00	7.64	1.225	267
13.696	16.98	18.69	0.01	7.64	1.225	267
13.728	16.99	18.70	0.00	7.64	1.225	267
13.760	16.99	18.70	0.01	7.64	1.225	267
13.792	16.98	18.69	0.00	7.64	1.225	267
13.824	16.99	18.70	0.01	7.64	1.225	267
13.856	17.00	18.72	0.00	7.64	1.225	267
13.888	16.99	18.71	0.01	7.64	1.229	268
13.920	17.00	18.71	0.01	7.64	1.229	268
13.952	16.98	18.69	0.01	7.64	1.229	268
13.984	17.00	18.71	0.00	7.64	1.229	268
14.016	17.01	18.73	0.00	7.64	1.229	268
14.048	17.03	18.74	0.01	7.64	1.229	268
14.080	17.03	18.75	0.01	7.64	1.229	268
14.112	17.02	18.74	0.00	7.64	1.229	268
14.144	17.04	18.76	0.01	7.64	1.229	268
14.176	17.04	18.76	0.00	7.64	1.229	268
14.208	17.05	18.77	0.00	7.64	1.229	268
14.240	17.06	18.78	0.01	7.64	1.229	268
14.272	17.05	18.77	0.00	7.64	1.229	268
14.304	17.05	18.77	0.00	7.64	1.229	268
14.336	17.05	18.76	0.01	7.64	1.229	268
14.368	17.05	18.77	0.01	7.64	1.229	268
14.400	17.04	18.76	0.00	7.64	1.229	268
14.432	17.03	18.75	0.00	7.64	1.229	268
14.464	17.02	18.73	0.01	7.64	1.229	268
14.496	17.03	18.74	0.01	7.64	1.229	268
14.528	17.04	18.75	0.01	7.64	1.229	268
14.560	17.04	18.75	0.00	7.64	1.229	268
14.592	17.05	18.76	0.00	7.64	1.229	268
14.624	17.06	18.78	0.00	7.64	1.229	268
14.656	17.06	18.77	0.01	7.64	1.229	268
14.688	17.06	18.77	0.01	7.64	1.229	268
14.720	17.06	18.77	0.01	7.64	1.229	268
14.752	17.05	18.77	0.00	7.64	1.229	268
14.784	17.05	18.76	0.01	7.64	1.229	268
14.816	17.05	18.77	0.01	7.64	1.225	267
14.848	17.04	18.76	0.01	7.64	1.225	267
14.880	17.03	18.74	0.00	7.64	1.225	267
14.912	17.02	18.73	0.00	7.64	1.225	267
14.944	17.01	18.73	0.01	7.64	1.225	267
14.976	17.02	18.73	0.00	7.64	1.225	267
15.008	17.04	18.75	0.00	7.64	1.225	267
15.040	17.06	18.77	0.00	7.64	1.225	267
15.072	17.07	18.79	0.00	7.64	1.225	267
15.104	17.08	18.80	0.01	7.64	1.225	267
15.136	17.09	18.81	0.01	7.64	1.225	267
15.168	17.10	18.82	0.01	7.64	1.225	267
15.200	17.13	18.84	0.00	7.64	1.225	267
15.232	17.13	18.85	0.01	7.64	1.225	267
15.264	17.13	18.84	0.01	7.64	1.225	267
15.296	17.13	18.84	0.01	7.64	1.229	268
15.328	17.15	18.86	0.01	7.64	1.229	268
15.360	17.15	18.86	0.01	7.64	1.229	268
15.392	17.15	18.86	0.01	7.64	1.229	268
15.424	17.12	18.83	0.00	7.64	1.229	268
15.456	17.13	18.84	0.00	7.64	1.229	268
15.488	17.12	18.84	0.00	7.64	1.229	268
15.520	17.14	18.85	0.00	7.64	1.229	268
15.552	17.12	18.84	-0.00	7.63	1.229	268
15.584	17.12	18.83	0.01	7.64	1.229	268
15.616	17.11	18.83	0.01	7.64	1.229	268
15.648	17.12	18.83	0.01	7.64	1.229	268
15.680	17.12	18.84	0.00	7.64	1.229	268
15.712	17.13	18.85	0.01	7.64	1.229	268
15.744	17.13	18.84	0.01	7.64	1.229	268
15.776	17.12	18.83	0.01	7.64	1.229	268
15.808	17.11	18.83	0.00	7.64	1.229	268
15.840	17.11	18.83	0.00	7.64	1.229	268
15.872	17.11	18.83	-0.00	7.63	1.229	268
15.904	17.10	18.82	0.01	7.64	1.229	268
15.936	17.09	18.80	0.01	7.64	1.229	268
15.968	17.09	18.80	0.01	7.64	1.229	268
16.000	17.09	18.81	0.00	7.64	1.229	268
16.032	17.09	18.81	0.01	7.64	1.229	268
16.064	17.10	18.81	0.01	7.64	1.229	268
16.096	17.12	18.83	0.01	7.64	1.229	268
16.128	17.13	18.84	0.00	7.64	1.229	268
16.160	17.15	18.87	0.00	7.64	1.229	268
16.192	17.18	18.90	-0.00	7.63	1.229	268
16.224	17.19	18.91	0.00	7.64	1.229	268
16.256	17.20	18.92	0.01	7.64	1.229	268
16.288	17.21	18.92	0.01	7.64	1.229	268
16.320	17.20	18.92	0.00	7.64	1.229	268
16.352	17.20	18.91	0.01	7.64	1.229	268
16.384	17.19	18.91	0.01	7.64	1.229	268
16.416	17.20	18.91	0.01	7.64	1.229	268
16.448	17.21	18.93	0.00	7.64	1.229	268
16.480	17.24	18.95	0.01	7.64	1.229	268
16.512	17.24	18.96	0.00	7.64	1.229	268
16.544	17.25	18.96	0.01	7.64	1.229	268
16.576	17.24	18.95	0.01	7.64	1.229	268
16.608	17.26	18.97	0.00	7.64	1.229	268
16.640	17.26	18.97	0.00	7.64	1.229	268
16.672	17.25	18.97	0.00	7.64	1.229	268
16.704	17.26	18.97	0.01	7.64	1.229	268
16.736	17.24	18.96	0.01	7.64	1.229	268
16.768	17.24	18.95	0.01	7.64	1.229	268
16.800	17.23	18.95	0.01	7.64	1.229	268
16.832	17.22	18.94	0.00	7.64	1.229	268
16.864	17.22	18.93	0.01	7.65	1.229	268
16.896	17.20	18.92	0.00	7.64	1.229	268
16.928	17.20	18.92	0.00	7.64	1.229	268
16.960	17.21	18.93	0.01	7.64	1.229	268
16.992	17.22	18.94	0.00	7.64	1.229	268
17.024	17.23	18.94	0.01	7.64	1.229	268
17.056	17.23	18.94	0.01	7.64	1.229	268
17.088	17.24	18.95	0.00	7.64	1.229	268
17.120	17.25	18.96	0.01	7.64	1.229	268
17.152	17.25	18.97	0.01	7.64	1.225	267
17.184	17.26	18.97	0.01	7.64	1.225	267
17.216	17.26	18.98	0.01	7.64	1.225	267
17.248	17.27	18.98	0.00	7.64	1.225	267
17.280	17.25	18.97	0.00	7.64	1.225	267
17.312	17.24	18.95	0.01	7.64	1.225	267
17.344	17.23	18.94	0.01	7.64	1.225	267
17.376	17.22	18.93	0.01	7.64	1.225	267
17.408	17.20	18.91	0.00	7.64	1.225	267
17.440	17.21	18.92	0.01	7.64	1.225	267
17.472	17.22	18.94	0.01	7.64	1.225	267
17.504	17.24	18.95	0.01	7.64	1.225	267
17.536	17.25	18.97	0.01	7.64	1.225	267
17.568	17.27	18.99	0.01	7.64	1.225	267
17.600	17.30	19.01	0.00	7.64	1.225	267
17.632	17.28	19.00	0.01	7.64	1.229	268
17.664	17.29	19.00	0.01	7.64	1.229	268
17.696	17.29	19.00	0.01	7.64	1.229	268
17.728	17.27	18.99	0.01	7.64	1.229	268
17.760	17.28	18.99	0.01	7.64	1.229	268
17.792	17.28	18.99	0.01	7.64	1.229	268
17.824	17.30	19.01	0.01	7.64	1.229	268
17.856	17.30	19.01	0.01	7.64	1.229	268
17.888	17.28	18.99	0.00	7.64	1.229	268
17.920	17.28	19.00	0.01	7.64	1.229	268
17.952	17.31	19.02	0.00	7.64	1.229	268
17.984	17.31	19.02	0.01	7.64	1.229	268
18.016	17.30	19.01	0.01	7.64	1.229	268
18.048	17.29	19.01	0.01	7.64	1.229	268
18.080	17.31	19.02	0.00	7.64	1.225	267
18.112	17.31	19.03	0.00	7.64	1.225	267
18.144	17.31	19.03	0.01	7.64	1.225	267
18.176	17.32	19.04	0.00	7.64	1.225	267
18.208	17.33	19.04	0.00	7.64	1.225	267
18.240	17.32	19.04	0.01	7.64	1.225	267
18.272	17.32	19.04	0.01	7.64	1.225	267
18.304	17.32	19.03	0.01	7.64	1.225	267
18.336	17.30	19.02	0.01	7.64	1.225	267
18.368	17.29	19.00	0.00	7.64	1.225	267
18.400	17.29	19.00	0.01	7.64	1.225	267
18.432	17.30	19.02	0.01	7.64	1.225	267
18.464	17.32	19.04	0.00	7.64	1.225	267
18.496	17.33	19.04	0.01	7.64	1.225	267
18.528	17.34	19.05	0.00	7.64	1.225	267
18.560	17.35	19.06	0.01	7.64	1.229	268
18.592	17.37	19.09	0.01	7.64	1.229	268
18.624	17.38	19.09	0.00	7.64	1.229	268
18.656	17.39	19.10	0.00	7.64	1.229	268
18.688	17.38	19.09	0.01	7.64	1.229	268
18.720	17.36	19.08	0.00	7.64	1.229	268
18.752	17.36	19.08	0.01	7.64	1.229	268
18.784	17.36	19.08	0.01	7.64	1.229	268
18.816	17.36	19.08	-0.00	7.63	1.229	268
18.848	17.38	19.09	0.01	7.64	1.229	268
18.880	17.36	19.07	0.00	7.64	1.229	268
18.912	17.36	19.08	0.01	7.64	1.229	268
18.944	17.37	19.09	0.00	7.64	1.229	268
18.976	17.39	19.10	0.01	7.64	1.229	268
19.008	17.40	19.11	0.01	7.64	1.229	268
19.040	17.40	19.11	0.00	7.64	1.225	267
19.072	17.40	19.11	0.00	7.64	1.225	267
19.104	17.40	19.11	0.01	7.64	1.225	267
19.136	17.41	19.12	0.00	7.64	1.225	267
19.168	17.42	19.14	0.01	7.64	1.225	267
19.200	17.42	19.14	0.00	7.64	1.225	267
19.232	17.42	19.14	0.01	7.64	1.225	267
19.264	17.40	19.12	0.00	7.64	1.225	267
19.296	17.38	19.10	0.00	7.64	1.225	267
19.328	17.37	19.09	0.01	7.64	1.225	267
19.360	17.35	19.07	0.00	7.64	1.225	267
19.392	17.36	19.07	0.01	7.64	1.225	267
19.424	17.37	19.08	0.01	7.64	1.225	267
19.456	17.38	19.09	0.00	7.64	1.225	267
19.488	17.38	19.09	0.00	7.64	1.225	267
19.520	17.38	19.09	0.01	7.64	1.225	267
19.552	17.40	19.11	0.00	7.64	1.225	267
19.584	17.39	19.11	0.00	7.64	1.225	267
19.616	17.42	19.13	0.01	7.64	1.225	267
19.648	17.43	19.15	0.01	7.64	1.225	267
19.680	17.43	19.15	0.01	7.64	1.225	267
19.712	17.43	19.15	0.01	7.64	1.225	267
19.744	17.44	19.15	0.00	7.64	1.225	267
19.776	17.43	19.14	0.01	7.64	1.225	267
19.808	17.42	19.14	0.00	7.64	1.225	267
19.840	17.40	19.12	0.01	7.64	1.225	267
19.872	17.38	19.10	0.00	7.64	1.225	267
19.904	17.40	19.11	0.00	7.64	1.225	267
19.936	17.40	19.11	0.00	7.64	1.225	267
19.968	17.40	19.12	0.00	7.64	1.225	267
20.000	17.40	19.12	0.01	7.64	1.225	267
20.032	17.41	19.12	0.01	7.64	1.225	267
20.064	17.42	19.14	0.00	7.64	1.225	267
20.096	17.42	19.14	0.00	7.64	1.225	267
20.128	17.43	19.14	0.01	7.64	1.225	267
20.160	17.42	19.14	0.00	7.64	1.225	267
20.192	17.43	19.14	0.01	7.64	1.225	267
20.224	17.42	19.14	0.00	7.64	1.225	267
20.256	17.42	19.13	0.00	7.64	1.225	267
20.288	17.42	19.14	0.00	7.64	1.225	267
20.320	17.41	19.13	0.01	7.64	1.225	267
20.352	17.41	19.12	0.01	7.64	1.225	267
20.384	17.43	19.14	0.01	7.64	1.225	267
20.416	17.44	19.15	0.01	7.64	1.229	268
20.448	17.45	19.16	0.01	7.64	1.229	268
20.480	17.45	19.16	0.01	7.65	1.229	268
20.512	17.46	19.17	0.01	7.64	1.229	268
20.544	17.48	19.19	0.00	7.64	1.229	268
20.576	17.49	19.20	0.01	7.64	1.229	268
20.608	17.51	19.22	0.01	7.64	1.229	268
20.640	17.50	19.22	0.01	7.64	1.229	268
20.672	17.51	19.22	0.01	7.64	1.229	268
20.704	17.51	19.23	0.00	7.64	1.229	268
20.736	17.51	19.22	0.01	7.64	1.229	268
20.768	17.51	19.23	0.01	7.64	1.229	268
20.800	17.51	19.22	0.01	7.64	1.229	268
20.832	17.50	19.22	0.00	7.64	1.229	268
20.864	17.51	19.22	0.00	7.64	1.229	268
20.896	17.52	19.23	0.00	7.64	1.225	267
20.928	17.53	19.24	0.00	7.64	1.225	267
20.960	17.52	19.24	0.00	7.64	1.225	267
20.992	17.53	19.24	0.01	7.64	1.225	267
21.024	17.52	19.24	0.00	7.64	1.225	267
21.056	17.53	19.24	0.00	7.64	1.225	267
21.088	17.53	19.25	0.01	7.64	1.225	267
21.120	17.56	19.28	0.01	7.64	1.225	267
21.152	17.57	19.28	0.00	7.64	1.225	267
21.184	17.57	19.28	0.00	7.64	1.225	267
21.216	17.58	19.29	0.01	7.64	1.225	267
21.248	17.58	19.29	0.01	7.64	1.225	267
21.280	17.57	19.29	0.00	7.64	1.225	267
21.312	17.55	19.27	0.00	7.64	1.225	267
21.344	17.53	19.24	0.00	7.64	1.225	267
21.376	17.54	19.26	0.01	7.64	1.229	268
21.408	17.55	19.27	0.01	7.64	1.229	268
21.440	17.57	19.28	0.00	7.64	1.229	268
21.472	17.59	19.31	0.00	7.64	1.229	268
21.504	17.60	19.31	0.01	7.64	1.229	268
21.536	17.60	19.32	0.00	7.64	1.229	268
21.568	17.60	19.32	0.01	7.64	1.229	268
21.600	17.62	19.33	0.00	7.64	1.229	268
21.632	17.63	19.34	0.01	7.64	1.229	268
21.664	17.61	19.33	0.01	7.64	1.229	268
21.696	17.61	19.32	0.01	7.64	1.229	268
21.728	17.60	19.32	0.01	7.64	1.229	268
21.760	17.60	19.32	0.01	7.64	1.229	268
21.792	17.60	19.32	0.01	7.64	1.229	268
21.824	17.59	19.30	0.00	7.64	1.225	267
21.856	17.60	19.31	0.01	7.64	1.225	267
21.888	17.62	19.33	0.01	7.65	1.225	267
21.920	17.63	19.35	0.00	7.64	1.225	267
21.952	17.65	19.36	0.01	7.64	1.225	267
21.984	17.66	19.38	0.01	7.64	1.225	267
22.016	17.68	19.40	0.01	7.64	1.225	267
22.048	17.68	19.40	0.01	7.64	1.225	267
22.080	17.68	19.40	0.01	7.64	1.225	267
22.112	17.68	19.40	0.01	7.64	1.225	267
22.144	17.67	19.39	0.00	7.64	1.225	267
22.176	17.68	19.39	0.00	7.64	1.225	267
22.208	17.67	19.38	0.01	7.64	1.225	267
22.240	17.67	19.39	0.01	7.64	1.225	267
22.272	17.67	19.38	0.00	7.64	1.225	267
22.304	17.66	19.38	0.01	7.64	1.225	267
22.336	17.65	19.37	0.00	7.64	1.225	267
22.368	17.66	19.38	0.01	7.64	1.225	267
22.400	17.68	19.40	0.00	7.64	1.225	267
22.432	17.69	19.40	0.00	7.64	1.225	267
22.464	17.69	19.41	0.00	7.64	1.225	267
22.496	17.69	19.40	0.01	7.64	1.225	267
22.528	17.68	19.40	0.01	7.64	1.225	267
22.560	17.69	19.41	0.01	7.64	1.225	267
22.592	17.71	19.43	0.01	7.64	1.225	267
22.624	17.72	19.43	0.01	7.64	1.225	267
22.656	17.73	19.44	0.01	7.64	1.225	267
22.688	17.74	19.46	0.01	7.64	1.225	267
22.720	17.74	19.45	0.00	7.64	1.225	267
22.752	17.74	19.46	0.00	7.64	1.225	267
22.784	17.73	19.44	0.01	7.64	1.225	267
22.816	17.72	19.43	0.00	7.64	1.225	267
22.848	17.72	19.44	0.01	7.64	1.225	267
22.880	17.74	19.45	0.01	7.64	1.225	267
22.912	17.74	19.45	0.01	7.64	1.225	267
22.944	17.75	19.46	0.01	7.64	1.225	267
22.976	17.74	19.46	0.01	7.64	1.225	267
23.008	17.75	19.47	0.01	7.64	1.225	267
23.040	17.76	19.48	0.01	7.64	1.225	267
23.072	17.79	19.50	0.00	7.64	1.225	267
23.104	17.80	19.52	0.00	7.64	1.225	267
23.136	17.80	19.51	0.01	7.64	1.225	267
23.168	17.79	19.50	0.01	7.64	1.225	267
23.200	17.79	19.50	0.01	7.64	1.225	267
23.232	17.78	19.50	0.01	7.64	1.225	267
23.264	17.79	19.51	0.01	7.64	1.225	267
23.296	17.78	19.50	0.00	7.64	1.225	267
23.328	17.77	19.49	0.01	7.64	1.225	267
23.360	17.78	19.49	0.00	7.64	1.225	267
23.392	17.80	19.52	0.01	7.64	1.225	267
23.424	17.81	19.53	0.01	7.64	1.225	267
23.456	17.83	19.54	0.01	7.64	1.225	267
23.488	17.85	19.56	0.00	7.64	1.225	267
23.520	17.85	19.57	0.00	7.64	1.225	267
23.552	17.86	19.57	0.00	7.64	1.225	267
23.584	17.87	19.58	0.00	7.64	1.225	267
23.616	17.88	19.59	0.01	7.64	1.225	267
23.648	17.86	19.58	0.01	7.64	1.225	267
23.680	17.86	19.58	0.00	7.64	1.225	267
23.712	17.85	19.56	0.00	7.64	1.225	267
23.744	17.84	19.55	0.01	7.64	1.225	267
23.776	17.83	19.55	0.01	7.64	1.225	267
23.808	17.81	19.53	-0.00	7.63	1.225	267
23.840	17.82	19.53	0.01	7.64	1.225	267
23.872	17.84	19.55	0.00	7.64	1.225	267
23.904	17.85	19.57	0.01	7.64	1.225	267
23.936	17.87	19.58	0.01	7.64	1.225	267
23.968	17.88	19.60	0.01	7.64	1.225	267
24.000	17.89	19.61	0.00	7.64	1.225	267
24.032	17.90	19.62	-0.00	7.63	1.225	267
24.064	17.90	19.61	0.01	7.64	1.225	267
24.096	17.91	19.63	0.01	7.64	1.225	267
24.128	17.92	19.63	0.00	7.64	1.225	267
24.160	17.91	19.63	0.01	7.64	1.229	268
24.192	17.92	19.63	0.00	7.64	1.229	268
24.224	17.91	19.62	0.01	7.64	1.229	268
24.256	17.90	19.62	0.01	7.64	1.229	268
24.288	17.88	19.59	0.00	7.64	1.229	268
24.320	17.88	19.60	0.01	7.64	1.229	268
24.352	17.89	19.61	0.00	7.64	1.229	268
24.384	17.90	19.62	0.01	7.64	1.229	268
24.416	17.90	19.62	0.01	7.64	1.229	268
24.448	17.90	19.61	0.00	7.64	1.229	268
24.480	17.90	19.62	0.01	7.64	1.229	268
24.512	17.91	19.63	0.00	7.64	1.229	268
24.544	17.93	19.64	0.00	7.64	1.229	268
24.576	17.94	19.65	0.01	7.64	1.229	268
24.608	17.94	19.66	0.00	7.64	1.229	268
24.640	17.94	19.66	0.00	7.64	1.225	267
24.672	17.94	19.66	0.01	7.64	1.225	267
24.704	17.94	19.65	0.01	7.64	1.225	267
24.736	17.93	19.64	0.01	7.64	1.225	267
24.768	17.91	19.62	0.00	7.64	1.225	267
24.800	17.90	19.61	0.00	7.64	1.225	267
24.832	17.91	19.62	0.00	7.64	1.225	267
24.864	17.93	19.64	0.00	7.64	1.225	267
24.896	17.94	19.65	0.01	7.64	1.225	267
24.928	17.95	19.67	0.01	7.64	1.225	267
24.960	17.96	19.67	-0.00	7.63	1.225	267
24.992	17.96	19.68	0.00	7.64	1.225	267
25.024	17.96	19.67	0.01	7.64	1.225	267
25.056	17.96	19.68	0.01	7.64	1.225	267
25.088	17.96	19.67	0.00	7.64	1.225	267
25.120	17.96	19.68	0.00	7.64	1.225	267
25.152	17.95	19.67	0.01	7.64	1.225	267
25.184	17.96	19.68	0.01	7.64	1.225	267
25.216	17.94	19.66	0.00	7.64	1.225	267
25.248	17.94	19.65	0.01	7.64	1.225	267
25.280	17.93	19.64	0.00	7.64	1.225	267
25.312	17.93	19.64	0.01	7.64	1.225	267
25.344	17.94	19.65	0.01	7.64	1.225	267
25.376	17.94	19.66	0.01	7.64	1.225	267
25.408	17.95	19.67	0.00	7.64	1.225	267
25.440	17.96	19.68	0.01	7.64	1.225	267
25.472	17.96	19.68	0.01	7.64	1.225	267
25.504	17.96	19.68	0.00	7.64	1.225	267
25.536	17.98	19.69	0.00	7.64	1.225	267
25.568	17.98	19.69	0.00	7.64	1.229	268
25.600	17.98	19.70	0.00	7.64	1.229	268
25.632	17.99	19.70	0.01	7.64	1.229	268
25.664	17.99	19.71	0.00	7.64	1.229	268
25.696	17.99	19.71	0.01	7.64	1.229	268
25.728	17.98	19.70	0.00	7.64	1.229	268
25.760	17.96	19.68	0.01	7.64	1.229	268
25.792	17.96	19.68	0.00	7.64	1.229	268
25.824	17.97	19.68	0.01	7.64	1.229	268
25.856	17.97	19.68	0.00	7.64	1.229	268
25.888	17.98	19.70	-0.00	7.63	1.229	268
25.920	17.98	19.70	0.00	7.64	1.229	268
25.952	18.00	19.72	0.01	7.64	1.229	268
25.984	18.01	19.73	0.01	7.64	1.229	268
26.016	18.01	19.72	0.00	7.64	1.229	268
26.048	18.01	19.73	0.00	7.64	1.225	267
26.080	18.01	19.73	0.00	7.64	1.225	267
26.112	18.00	19.72	0.01	7.64	1.225	267
26.144	18.01	19.72	0.01	7.64	1.225	267
26.176	18.02	19.74	0.01	7.64	1.225	267
26.208	18.03	19.74	0.00	7.64	1.225	267
26.240	18.02	19.74	0.01	7.64	1.225	267
26.272	18.02	19.74	0.01	7.65	1.225	267
26.304	18.03	19.75	0.01	7.64	1.225	267
26.336	18.05	19.76	-0.00	7.63	1.225	267
26.368	18.06	19.77	-0.00	7.63	1.225	267
26.400	18.05	19.77	0.01	7.64	1.225	267
26.432	18.08	19.79	0.01	7.64	1.225	267
26.464	18.08	19.80	0.01	7.64	1.225	267
26.496	18.08	19.80	0.00	7.64	1.225	267
26.528	18.09	19.81	0.01	7.64	1.225	267
26.560	18.10	19.81	0.01	7.64	1.225	267
26.592	18.09	19.80	0.01	7.64	1.225	267
26.624	18.10	19.81	0.01	7.64	1.225	267
26.656	18.10	19.82	0.00	7.64	1.225	267
26.688	18.11	19.83	0.01	7.64	1.225	267
26.720	18.12	19.83	0.00	7.64	1.225	267
26.752	18.11	19.83	0.01	7.64	1.225	267
26.784	18.12	19.84	0.01	7.64	1.225	267
26.816	18.14	19.85	0.00	7.64	1.225	267
26.848	18.15	19.86	0.00	7.64	1.225	267
26.880	18.16	19.88	0.01	7.64	1.225	267
26.912	18.17	19.88	0.01	7.64	1.225	267
26.944	18.18	19.89	0.01	7.64	1.225	267
26.976	18.18	19.89	0.00	7.64	1.229	268
27.008	18.19	19.91	0.00	7.64	1.229	268
27.040	18.20	19.92	0.00	7.64	1.229	268
27.072	18.19	19.91	0.01	7.64	1.229	268
27.104	18.19	19.90	0.01	7.64	1.229	268
27.136	18.19	19.91	0.01	7.64	1.229	268
27.168	18.19	19.90	0.01	7.64	1.229	268
27.200	18.20	19.91	0.01	7.64	1.229	268
27.232	18.19	19.90	0.01	7.64	1.229	268
27.264	18.18	19.90	0.01	7.64	1.229	268
27.296	18.19	19.90	0.00	7.64	1.229	268
27.328	18.20	19.92	0.01	7.64	1.229	268
27.360	18.20	19.92	0.01	7.64	1.229	268
27.392	18.20	19.91	0.00	7.64	1.229	268
27.424	18.20	19.92	0.01	7.64	1.229	268
27.456	18.20	19.91	0.00	7.64	1.225	267
27.488	18.20	19.91	0.01	7.64	1.225	267
27.520	18.21	19.93	0.00	7.64	1.225	267
27.552	18.20	19.92	0.00	7.64	1.225	267
27.584	18.20	19.91	0.01	7.64	1.225	267
27.616	18.20	19.91	0.00	7.64	1.225	267
27.648	18.19	19.90	0.00	7.64	1.225	267
27.680	18.19	19.90	0.01	7.64	1.225	267
27.712	18.16	19.88	0.01	7.64	1.225	267
27.744	18.14	19.86	0.00	7.64	1.225	267
27.776	18.13	19.85	0.01	7.64	1.225	267
27.808	18.15	19.86	0.01	7.64	1.225	267
27.840	18.15	19.87	0.01	7.64	1.225	267
27.872	18.16	19.88	0.01	7.64	1.225	267
27.904	18.17	19.89	0.01	7.64	1.225	267
27.936	18.20	19.92	0.00	7.64	1.225	267
27.968	18.21	19.92	0.01	7.64	1.225	267
28.000	18.24	19.95	0.01	7.64	1.225	267
28.032	18.25	19.97	0.01	7.64	1.225	267
28.064	18.27	19.99	0.00	7.64	1.225	267
28.096	18.27	19.98	0.00	7.64	1.225	267
28.128	18.27	19.99	0.00	7.64	1.225	267
28.160	18.27	19.99	0.01	7.64	1.225	267
28.192	18.26	19.98	0.01	7.64	1.225	267
28.224	18.26	19.97	0.00	7.64	1.225	267
28.256	18.25	19.97	0.00	7.64	1.225	267
28.288	18.25	19.96	0.00	7.64	1.225	267
28.320	18.27	19.99	0.00	7.64	1.225	267
28.352	18.27	19.99	0.01	7.64	1.225	267
28.384	18.29	20.00	0.00	7.64	1.229	268
28.416	18.30	20.01	0.01	7.64	1.229	268
28.448	18.31	20.02	0.00	7.64	1.229	268
28.480	18.30	20.02	0.00	7.64	1.229	268
28.512	18.31	20.03	0.00	7.64	1.229	268
28.544	18.30	20.02	0.00	7.64	1.229	268
28.576	18.30	20.01	0.01	7.64	1.229	268
28.608	18.30	20.01	0.01	7.64	1.229	268
28.640	18.30	20.02	0.01	7.64	1.229	268
28.672	18.30	20.02	0.01	7.64	1.229	268
28.704	18.29	20.01	0.00	7.64	1.229	268
28.736	18.29	20.00	0.01	7.64	1.229	268
28.768	18.30	20.02	0.00	7.64	1.229	268
28.800	18.32	20.03	0.01	7.64	1.229	268
28.832	18.34	20.06	0.01	7.64	1.229	268
28.864	18.35	20.07	0.01	7.64	1.229	268
28.896	18.36	20.08	0.00	7.64	1.229	268
28.928	18.38	20.10	0.01	7.64	1.229	268
28.960	18.39	20.10	0.01	7.64	1.229	268
28.992	18.40	20.12	0.01	7.64	1.229	268
29.024	18.41	20.13	0.00	7.64	1.229	268
29.056	18.41	20.13	0.01	7.64	1.229	268
29.088	18.41	20.12	0.01	7.64	1.229	268
29.120	18.40	20.12	0.01	7.64	1.229	268
29.152	18.40	20.11	0.01	7.64	1.229	268
29.184	18.39	20.11	0.00	7.64	1.229	268
29.216	18.39	20.10	0.01	7.64	1.229	268
29.248	18.39	20.10	0.00	7.64	1.229	268
29.280	18.39	20.10	0.01	7.64	1.229	268
29.312	18.39	20.10	0.00	7.64	1.229	268
29.344	18.39	20.11	0.01	7.64	1.229	268
29.376	18.40	20.11	0.00	7.64	1.229	268
29.408	18.41	20.13	0.01	7.64	1.229	268
29.440	18.44	20.15	0.01	7.64	1.229	268
29.472	18.44	20.15	0.01	7.64	1.229	268
29.504	18.44	20.16	0.01	7.64	1.229	268
29.536	18.45	20.17	0.01	7.64	1.229	268
29.568	18.45	20.16	0.00	7.64	1.229	268
29.600	18.46	20.17	0.01	7.64	1.229	268
29.632	18.46	20.18	0.01	7.64	1.229	268
29.664	18.47	20.19	0.01	7.64	1.229	268
29.696	18.46	20.18	0.01	7.64	1.229	268
29.728	18.45	20.16	0.01	7.64	1.229	268
29.760	18.45	20.17	0.01	7.64	1.229	268
29.792	18.46	20.18	0.00	7.64	1.229	268
29.824	18.47	20.19	0.00	7.64	1.229	268
29.856	18.47	20.18	0.00	7.64	1.229	268
29.888	18.46	20.18	0.01	7.64	1.229	268
29.920	18.47	20.19	0.01	7.64	1.229	268
29.952	18.46	20.18	0.01	7.64	1.229	268
29.984	18.48	20.19	0.01	7.64	1.229	268
30.016	18.48	20.19	0.01	7.64	1.229	268
30.048	18.47	20.19	0.01	7.64	1.229	268
30.080	18.47	20.18	0.01	7.64	1.229	268
30.112	18.47	20.18	0.00	7.64	1.229	268
30.144	18.45	20.17	0.01	7.64	1.229	268
30.176	18.44	20.16	0.01	7.64	1.229	268
30.208	18.42	20.14	0.01	7.64	1.229	268
30.240	18.41	20.13	0.01	7.64	1.229	268
30.272	18.43	20.14	0.00	7.64	1.229	268
30.304	18.44	20.15	0.01	7.64	1.229	268
30.336	18.45	20.16	0.00	7.64	1.229	268
30.368	18.45	20.17	0.01	7.64	1.229	268
30.400	18.45	20.16	0.01	7.64	1.229	268
30.432	18.44	20.15	0.00	7.64	1.229	268
30.464	18.45	20.17	0.00	7.64	1.229	268
30.496	18.46	20.18	0.01	7.64	1.229	268
30.528	18.47	20.19	0.01	7.64	1.229	268
30.560	18.47	20.19	0.01	7.64	1.229	268
30.592	18.46	20.18	0.01	7.64	1.229	268
30.624	18.46	20.17	0.01	7.64	1.229	268
30.656	18.46	20.18	0.00	7.64	1.229	268
30.688	18.44	20.16	0.01	7.64	1.229	268
30.720	18.44	20.16	0.00	7.64	1.225	267
30.752	18.46	20.17	0.00	7.64	1.225	267
30.784	18.48	20.19	0.01	7.64	1.225	267
30.816	18.49	20.20	0.00	7.64	1.225	267
30.848	18.50	20.21	0.01	7.64	1.225	267
30.880	18.50	20.21	0.01	7.64	1.225	267
30.912	18.50	20.22	0.00	7.64	1.225	267
30.944	18.51	20.22	0.01	7.64	1.225	267
30.976	18.51	20.23	0.01	7.64	1.225	267
31.008	18.50	20.22	0.01	7.65	1.225	267
31.040	18.49	20.20	0.01	7.64	1.225	267
31.072	18.48	20.20	0.01	7.64	1.225	267
31.104	18.48	20.19	0.01	7.64	1.225	267
31.136	18.47	20.18	0.01	7.64	1.225	267
31.168	18.46	20.18	0.00	7.64	1.225	267
31.200	18.46	20.17	0.01	7.64	1.229	268
31.232	18.47	20.18	0.01	7.64	1.229	268
31.264	18.49	20.20	0.01	7.64	1.229	268
31.296	18.50	20.22	0.01	7.64	1.229	268
31.328	18.51	20.23	0.01	7.64	1.229	268
31.360	18.51	20.23	0.01	7.64	1.229	268
31.392	18.51	20.23	0.01	7.64	1.229	268
31.424	18.50	20.22	0.01	7.64	1.229	268
31.456	18.51	20.23	0.01	7.64	1.229	268
31.488	18.51	20.23	0.01	7.64	1.229	268
31.520	18.52	20.23	0.00	7.64	1.229	268
31.552	18.52	20.24	0.00	7.64	1.229	268
31.584	18.53	20.24	0.01	7.64	1.229	268
31.616	18.53	20.25	0.01	7.64	1.229	268
31.648	18.54	20.25	0.01	7.64	1.229	268
31.680	18.51	20.23	0.00	7.64	1.225	267
31.712	18.52	20.23	0.01	7.64	1.225	267
31.744	18.53	20.24	0.01	7.64	1.225	267
31.776	18.54	20.25	0.01	7.64	1.225	267
31.808	18.55	20.27	0.01	7.64	1.225	267
31.840	18.56	20.27	0.00	7.64	1.225	267
31.872	18.56	20.28	0.01	7.64	1.225	267
31.904	18.56	20.28	0.00	7.64	1.225	267
31.936	18.56	20.27	0.01	7.64	1.225	267
31.968	18.56	20.27	0.00	7.64	1.225	267
32.000	18.55	20.27	0.00	7.64	1.225	267
32.032	18.55	20.27	0.01	7.64	1.225	267
32.064	18.56	20.28	0.01	7.64	1.225	267
32.096	18.56	20.28	0.01	7.64	1.225	267
32.128	18.56	20.27	0.01	7.64	1.229	268
32.160	18.55	20.27	0.01	7.64	1.229	268
32.192	18.55	20.27	0.01	7.64	1.229	268
32.224	18.56	20.27	0.01	7.64	1.229	268
32.256	18.56	20.28	0.01	7.64	1.229	268
32.288	18.58	20.29	0.01	7.64	1.229	268
32.320	18.59	20.31	0.00	7.64	1.229	268
32.352	18.61	20.32	0.01	7.64	1.229	268
32.384	18.62	20.34	0.01	7.64	1.229	268
32.416	18.64	20.35	0.01	7.64	1.229	268
32.448	18.67	20.38	0.01	7.64	1.229	268
32.480	18.68	20.39	0.00	7.64	1.229	268
32.512	18.68	20.39	0.00	7.64	1.229	268
32.544	18.66	20.38	0.01	7.64	1.229	268
32.576	18.64	20.36	0.01	7.64	1.229	268
32.608	18.63	20.35	0.01	7.64	1.225	267
32.640	18.62	20.34	0.01	7.64	1.225	267
32.672	18.59	20.31	0.00	7.64	1.225	267
32.704	18.59	20.30	0.01	7.64	1.225	267
32.736	18.62	20.34	0.01	7.64	1.225	267
32.768	18.63	20.34	0.01	7.64	1.225	267
32.800	18.64	20.36	0.01	7.64	1.225	267
32.832	18.64	20.35	0.00	7.64	1.225	267
32.864	18.64	20.35	0.01	7.64	1.225	267
32.896	18.64	20.35	0.01	7.65	1.225	267
32.928	18.65	20.36	0.00	7.64	1.225	267
32.960	18.66	20.37	0.01	7.64	1.225	267
32.992	18.66	20.37	0.00	7.64	1.225	267
33.024	18.65	20.37	0.00	7.64	1.225	267
33.056	18.64	20.36	0.01	7.64	1.229	268
33.088	18.64	20.35	0.01	7.64	1.229	268
33.120	18.63	20.34	0.00	7.64	1.229	268
33.152	18.61	20.32	0.00	7.64	1.229	268
33.184	18.60	20.31	0.01	7.64	1.229	268
33.216	18.60	20.31	0.01	7.64	1.229	268
33.248	18.63	20.34	0.01	7.64	1.229	268
33.280	18.66	20.37	0.00	7.64	1.229	268
33.312	18.68	20.39	0.00	7.64	1.229	268
33.344	18.68	20.40	0.01	7.64	1.229	268
33.376	18.69	20.40	0.01	7.64	1.229	268
33.408	18.68	20.40	0.01	7.64	1.229	268
33.440	18.69	20.41	0.01	7.64	1.229	268
33.472	18.70	20.41	0.01	7.64	1.229	268
33.504	18.70	20.41	0.01	7.64	1.229	268
33.536	18.70	20.41	0.00	7.64	1.229	268
33.568	18.69	20.40	0.01	7.64	1.229	268
33.600	18.67	20.39	0.00	7.64	1.229	268
33.632	18.65	20.37	0.00	7.64	1.229	268
33.664	18.64	20.35	0.01	7.64	1.229	268
33.696	18.64	20.35	0.00	7.64	1.229	268
33.728	18.65	20.37	0.00	7.64	1.229	268
33.760	18.66	20.38	0.01	7.64	1.229	268
33.792	18.66	20.38	0.01	7.64	1.229	268
33.824	18.67	20.39	0.01	7.65	1.229	268
33.856	18.67	20.38	0.01	7.64	1.229	268
33.888	18.66	20.38	0.01	7.64	1.229	268
33.920	18.67	20.38	0.01	7.64	1.229	268
33.952	18.67	20.39	0.01	7.64	1.229	268
33.984	18.66	20.38	0.01	7.64	1.229	268
34.016	18.67	20.39	0.00	7.64	1.229	268
34.048	18.68	20.39	0.00	7.64	1.229	268
34.080	18.69	20.40	0.00	7.64	1.229	268
34.112	18.69	20.41	0.00	7.64	1.229	268
34.144	18.68	20.40	0.01	7.64	1.229	268
34.176	18.68	20.39	0.00	7.64	1.229	268
34.208	18.68	20.39	0.01	7.64	1.229	268
34.240	18.68	20.39	0.01	7.64	1.229	268
34.272	18.69	20.40	0.00	7.64	1.229	268
34.304	18.69	20.40	0.01	7.64	1.229	268
34.336	18.69	20.40	0.01	7.64	1.229	268
34.368	18.69	20.41	0.00	7.64	1.229	268
34.400	18.71	20.42	0.00	7.64	1.229	268
34.432	18.73	20.44	0.00	7.64	1.229	268
34.464	18.73	20.44	0.01	7.64	1.229	268
34.496	18.72	20.43	0.00	7.64	1.229	268
34.528	18.72	20.43	0.00	7.64	1.229	268
34.560	18.71	20.42	0.00	7.64	1.229	268
34.592	18.71	20.42	0.01	7.64	1.229	268
34.624	18.70	20.41	0.01	7.64	1.229	268
34.656	18.70	20.41	0.01	7.64	1.229	268
34.688	18.71	20.43	0.00	7.64	1.229	268
34.720	18.72	20.44	0.00	7.64	1.229	268
34.752	18.74	20.45	0.01	7.64	1.229	268
34.784	18.74	20.46	0.01	7.64	1.229	268
34.816	18.75	20.47	0.01	7.64	1.229	268
34.848	18.77	20.48	0.00	7.64	1.229	268
34.880	18.78	20.49	0.01	7.64	1.229	268
34.912	18.80	20.51	0.01	7.65	1.229	268
34.944	18.81	20.52	0.01	7.64	1.234	269
34.976	18.80	20.52	0.01	7.64	1.234	269
35.008	18.80	20.51	0.00	7.64	1.234	269
35.040	18.80	20.52	0.01	7.64	1.234	269
35.072	18.80	20.52	0.01	7.64	1.234	269
35.104	18.80	20.52	0.01	7.64	1.234	269
35.136	18.78	20.49	0.01	7.64	1.234	269
35.168	18.79	20.50	0.01	7.64	1.234	269
35.200	18.80	20.51	0.00	7.64	1.234	269
35.232	18.80	20.52	0.01	7.64	1.234	269
35.264	18.80	20.52	0.00	7.64	1.234	269
35.296	18.80	20.52	0.01	7.64	1.234	269
35.328	18.80	20.51	0.01	7.64	1.234	269
35.360	18.79	20.50	0.01	7.64	1.234	269
35.392	18.79	20.50	0.00	7.64	1.234	269
35.424	18.79	20.51	0.00	7.64	1.229	268
35.456	18.79	20.50	0.00	7.64	1.229	268
35.488	18.79	20.51	0.01	7.64	1.229	268
35.520	18.80	20.51	0.01	7.64	1.229	268
35.552	18.81	20.52	0.01	7.64	1.229	268
35.584	18.81	20.52	0.01	7.64	1.229	268
35.616	18.79	20.51	0.01	7.64	1.229	268
35.648	18.79	20.50	0.00	7.64	1.229	268
35.680	18.79	20.50	0.01	7.64	1.229	268
35.712	18.80	20.51	0.01	7.64	1.229	268
35.744	18.80	20.52	0.01	7.64	1.229	268
35.776	18.82	20.54	0.00	7.64	1.229	268
35.808	18.83	20.55	0.00	7.64	1.229	268
35.840	18.85	20.56	0.00	7.64	1.229	268
35.872	18.85	20.56	0.01	7.64	1.229	268
35.904	18.86	20.57	0.01	7.64	1.229	268
35.936	18.87	20.59	0.00	7.64	1.229	268
35.968	18.88	20.60	0.01	7.64	1.229	268
36.000	18.89	20.60	0.01	7.64	1.229	268
36.032	18.89	20.60	0.01	7.64	1.229	268
36.064	18.89	20.60	0.00	7.64	1.229	268
36.096	18.88	20.59	0.01	7.64	1.229	268
36.128	18.86	20.58	0.01	7.64	1.229	268
36.160	18.85	20.57	0.01	7.64	1.229	268
36.192	18.86	20.57	0.01	7.64	1.229	268
36.224	18.86	20.58	0.01	7.64	1.229	268
36.256	18.86	20.57	0.00	7.64	1.229	268
36.288	18.84	20.56	0.00	7.64	1.229	268
36.320	18.83	20.55	0.01	7.64	1.229	268
36.352	18.83	20.55	0.01	7.64	1.229	268
36.384	18.84	20.55	0.01	7.64	1.229	268
36.416	18.85	20.57	0.00	7.64	1.229	268
36.448	18.88	20.59	0.01	7.64	1.229	268
36.480	18.89	20.61	0.01	7.64	1.229	268
36.512	18.90	20.62	0.01	7.64	1.229	268
36.544	18.91	20.62	0.01	7.64	1.229	268
36.576	18.91	20.63	0.00	7.64	1.229	268
36.608	18.91	20.62	0.00	7.64	1.229	268
36.640	18.92	20.64	0.01	7.64	1.229	268
36.672	18.94	20.65	0.01	7.64	1.229	268
36.704	18.95	20.67	0.00	7.64	1.229	268
36.736	18.96	20.67	0.01	7.64	1.229	268
36.768	18.97	20.69	0.01	7.64	1.229	268
36.800	18.99	20.70	0.01	7.64	1.234	269
36.832	18.99	20.70	0.01	7.64	1.234	269
36.864	18.99	20.70	0.00	7.64	1.234	269
36.896	18.99	20.70	0.00	7.64	1.234	269
36.928	18.98	20.70	0.01	7.64	1.234	269
36.960	18.98	20.69	0.01	7.64	1.234	269
36.992	18.96	20.68	0.01	7.64	1.234	269
37.024	18.95	20.66	0.00	7.64	1.234	269
37.056	18.94	20.65	0.01	7.64	1.234	269
37.088	18.92	20.64	0.01	7.64	1.234	269
37.120	18.91	20.62	0.01	7.64	1.234	269
37.152	18.91	20.63	0.01	7.64	1.234	269
37.184	18.92	20.63	0.00	7.64	1.234	269
37.216	18.93	20.64	0.01	7.64	1.234	269
37.248	18.93	20.65	0.01	7.64	1.234	269
37.280	18.94	20.65	0.01	7.65	1.229	268
37.312	18.93	20.65	0.00	7.64	1.229	268
37.344	18.93	20.65	0.00	7.64	1.229	268
37.376	18.94	20.66	0.01	7.64	1.229	268
37.408	18.98	20.69	0.01	7.64	1.229	268
37.440	19.01	20.72	0.01	7.64	1.229	268
37.472	19.04	20.75	0.00	7.64	1.229	268
37.504	19.05	20.77	0.01	7.64	1.229	268
37.536	19.06	20.78	0.01	7.64	1.229	268
37.568	19.06	20.77	0.01	7.64	1.229	268
37.600	19.05	20.76	0.01	7.64	1.229	268
37.632	19.05	20.76	0.01	7.64	1.229	268
37.664	19.04	20.76	0.00	7.64	1.229	268
37.696	19.03	20.75	0.01	7.64	1.229	268
37.728	19.04	20.75	0.01	7.64	1.229	268
37.760	19.03	20.74	0.01	7.64	1.229	268
37.792	19.03	20.74	0.01	7.64	1.229	268
37.824	19.02	20.73	0.00	7.64	1.229	268
37.856	19.03	20.74	0.01	7.64	1.229	268
37.888	19.01	20.73	0.01	7.64	1.229	268
37.920	18.98	20.69	0.01	7.64	1.229	268
37.952	18.95	20.67	0.01	7.64	1.229	268
37.984	18.93	20.64	0.01	7.64	1.229	268
38.016	18.91	20.63	0.01	7.64	1.229	268
38.048	18.89	20.60	0.01	7.64	1.229	268
38.080	18.86	20.58	0.01	7.64	1.229	268
38.112	18.85	20.57	-0.00	7.63	1.229	268
38.144	18.84	20.55	0.00	7.64	1.229	268
38.176	18.82	20.54	0.01	7.64	1.229	268
38.208	18.81	20.52	0.01	7.64	1.234	269
38.240	18.79	20.50	0.01	7.64	1.234	269
38.272	18.77	20.48	0.01	7.64	1.234	269
38.304	18.75	20.46	0.01	7.64	1.234	269
38.336	18.73	20.44	0.00	7.64	1.234	269
38.368	18.72	20.44	0.01	7.64	1.234	269
38.400	18.70	20.42	0.01	7.64	1.234	269
38.432	18.69	20.40	0.00	7.64	1.234	269
38.464	18.68	20.39	0.00	7.64	1.234	269
38.496	18.67	20.39	0.00	7.64	1.234	269
38.528	18.66	20.38	0.01	7.64	1.234	269
38.560	18.64	20.35	0.01	7.64	1.234	269
38.592	18.62	20.34	0.01	7.64	1.234	269
38.624	18.61	20.33	0.00	7.64	1.234	269
38.656	18.61	20.33	0.00	7.64	1.234	269
38.688	18.61	20.33	0.01	7.64	1.229	268
38.720	18.61	20.33	0.01	7.64	1.229	268
38.752	18.61	20.33	0.01	7.64	1.229	268
38.784	18.61	20.33	0.01	7.64	1.229	268
38.816	18.61	20.33	0.01	7.64	1.229	268
38.848	18.62	20.34	0.01	7.64	1.229	268
38.880	18.63	20.35	0.01	7.64	1.229	268
38.912	18.63	20.35	0.01	7.64	1.229	268
38.944	18.63	20.35	0.01	7.64	1.229	268
38.976	18.63	20.35	0.00	7.64	1.229	268
39.008	18.63	20.34	0.01	7.64	1.229	268
39.040	18.63	20.34	0.01	7.64	1.229	268
39.072	18.63	20.34	0.00	7.64	1.229	268
39.104	18.64	20.35	0.01	7.64	1.229	268
39.136	18.66	20.38	0.01	7.64	1.229	268
39.168	18.68	20.39	0.01	7.64	1.234	269
39.200	18.70	20.41	0.00	7.64	1.234	269
39.232	18.71	20.43	0.00	7.64	1.234	269
39.264	18.72	20.44	0.00	7.64	1.234	269
39.296	18.72	20.43	0.01	7.64	1.234	269
39.328	18.73	20.45	0.01	7.64	1.234	269
39.360	18.74	20.46	0.01	7.64	1.234	269
39.392	18.76	20.47	0.00	7.64	1.234	269
39.424	18.78	20.49	0.01	7.64	1.234	269
39.456	18.79	20.50	0.01	7.64	1.234	269
39.488	18.81	20.53	0.01	7.64	1.234	269
39.520	18.83	20.54	0.01	7.64	1.234	269
39.552	18.81	20.52	0.00	7.64	1.234	269
39.584	18.78	20.50	0.01	7.64	1.234	269
39.616	18.76	20.48	0.01	7.64	1.225	267
39.648	18.75	20.47	0.01	7.64	1.225	267
39.680	18.74	20.46	0.01	7.64	1.225	267
39.712	18.73	20.45	0.01	7.64	1.225	267
39.744	18.73	20.44	0.00	7.64	1.225	267
39.776	18.73	20.45	0.01	7.64	1.225	267
39.808	18.73	20.45	0.01	7.64	1.225	267
39.840	18.75	20.46	0.01	7.64	1.225	267
39.872	18.75	20.47	0.00	7.64	1.225	267
39.904	18.75	20.47	0.01	7.64	1.225	267
39.936	18.74	20.46	0.01	7.64	1.225	267
39.968	18.73	20.45	0.01	7.64	1.225	267
40.000	18.72	20.43	0.00	7.64	1.225	267
40.032	18.71	20.43	0.00	7.64	1.225	267
40.064	18.71	20.43	0.00	7.64	1.225	267
40.096	18.70	20.42	0.01	7.64	1.229	268
40.128	18.70	20.42	0.01	7.64	1.229	268
40.160	18.70	20.42	0.00	7.64	1.229	268
40.192	18.71	20.42	0.00	7.64	1.229	268
40.224	18.71	20.42	0.00	7.64	1.229	268
40.256	18.70	20.41	0.00	7.64	1.229	268
40.288	18.68	20.40	0.01	7.64	1.229	268
40.320	18.66	20.38	0.01	7.64	1.229	268
40.352	18.64	20.36	0.00	7.64	1.229	268
40.384	18.62	20.34	0.01	7.64	1.229	268
40.416	18.61	20.33	0.01	7.64	1.229	268
40.448	18.60	20.32	0.01	7.64	1.229	268
40.480	18.58	20.30	0.00	7.64	1.229	268
40.512	18.56	20.28	0.01	7.64	1.229	268
40.544	18.53	20.25	0.00	7.64	1.225	267
40.576	18.51	20.22	0.01	7.64	1.225	267
40.608	18.49	20.21	0.00	7.64	1.225	267
40.640	18.50	20.22	0.00	7.64	1.225	267
40.672	18.51	20.22	0.00	7.64	1.225	267
40.704	18.50	20.22	0.00	7.64	1.225	267
40.736	18.50	20.22	0.01	7.64	1.225	267
40.768	18.50	20.21	0.01	7.64	1.225	267
40.800	18.50	20.21	0.01	7.64	1.225	267
40.832	18.52	20.23	0.00	7.64	1.225	267
40.864	18.54	20.25	0.00	7.64	1.225	267
40.896	18.55	20.27	0.01	7.64	1.225	267
40.928	18.56	20.28	0.01	7.64	1.225	267
40.960	18.57	20.29	0.00	7.64	1.225	267
40.992	18.56	20.28	0.01	7.64	1.225	267
41.024	18.55	20.26	0.00	7.64	1.229	268
41.056	18.54	20.26	0.01	7.64	1.229	268
41.088	18.54	20.26	0.00	7.64	1.229	268
41.120	18.54	20.26	0.01	7.64	1.229	268
41.152	18.54	20.25	0.00	7.64	1.229	268
41.184	18.52	20.23	0.01	7.64	1.229	268
41.216	18.50	20.21	0.01	7.64	1.229	268
41.248	18.49	20.21	0.00	7.64	1.229	268
41.280	18.48	20.19	0.01	7.64	1.229	268
41.312	18.49	20.20	0.01	7.64	1.229	268
41.344	18.48	20.19	0.01	7.64	1.229	268
41.376	18.46	20.18	0.00	7.64	1.229	268
41.408	18.46	20.17	0.01	7.64	1.229	268
41.440	18.45	20.17	0.00	7.64	1.229	268
41.472	18.45	20.16	0.01	7.64	1.229	268
41.504	18.44	20.15	0.01	7.64	1.229	268
41.536	18.42	20.13	0.01	7.64	1.229	268
41.568	18.42	20.13	0.00	7.64	1.229	268
41.600	18.42	20.13	0.01	7.64	1.229	268
41.632	18.41	20.13	0.00	7.64	1.229	268
41.664	18.41	20.12	0.00	7.64	1.229	268
41.696	18.40	20.12	0.01	7.64	1.229	268
41.728	18.40	20.12	0.01	7.64	1.229	268
41.760	18.41	20.12	0.00	7.64	1.229	268
41.792	18.41	20.12	0.01	7.64	1.229	268
41.824	18.40	20.12	0.01	7.64	1.229	268
41.856	18.39	20.10	0.01	7.64	1.229	268
41.888	18.37	20.09	0.00	7.64	1.229	268
41.920	18.36	20.08	0.00	7.64	1.229	268
41.952	18.35	20.06	0.00	7.64	1.225	267
41.984	18.33	20.04	0.00	7.64	1.225	267
42.016	18.30	20.02	0.01	7.64	1.225	267
42.048	18.30	20.01	0.01	7.64	1.225	267
42.080	18.30	20.02	0.01	7.64	1.225	267
42.112	18.30	20.02	0.01	7.64	1.225	267
42.144	18.31	20.02	0.00	7.64	1.225	267
42.176	18.31	20.02	0.01	7.64	1.225	267
42.208	18.31	20.02	0.01	7.64	1.225	267
42.240	18.30	20.02	0.01	7.64	1.225	267
42.272	18.31	20.02	0.00	7.64	1.225	267
42.304	18.30	20.02	0.01	7.64	1.225	267
42.336	18.30	20.01	0.01	7.64	1.225	267
42.368	18.28	19.99	0.01	7.64	1.225	267
42.400	18.25	19.97	0.00	7.64	1.225	267
42.432	18.25	19.96	0.01	7.64	1.225	267
42.464	18.24	19.96	0.01	7.64	1.225	267
42.496	18.23	19.95	0.01	7.64	1.225	267
42.528	18.21	19.92	0.01	7.64	1.225	267
42.560	18.19	19.90	0.00	7.64	1.225	267
42.592	18.16	19.88	0.01	7.64	1.225	267
42.624	18.15	19.87	0.01	7.64	1.225	267
42.656	18.15	19.87	0.01	7.64	1.225	267
42.688	18.13	19.85	0.00	7.64	1.225	267
42.720	18.13	19.84	0.01	7.64	1.225	267
42.752	18.11	19.83	0.01	7.64	1.225	267
42.784	18.11	19.82	0.01	7.64	1.225	267
42.816	18.10	19.81	0.01	7.64	1.225	267
42.848	18.09	19.80	0.00	7.64	1.225	267
42.880	18.09	19.80	0.00	7.64	1.225	267
42.912	18.08	19.80	0.01	7.64	1.225	267
42.944	18.08	19.79	0.01	7.64	1.225	267
42.976	18.07	19.79	0.00	7.64	1.225	267
43.008	18.06	19.77	0.01	7.64	1.225	267
43.040	18.04	19.76	0.01	7.64	1.225	267
43.072	18.04	19.76	0.01	7.64	1.225	267
43.104	18.05	19.77	0.01	7.64	1.225	267
43.136	18.05	19.76	0.00	7.64	1.225	267
43.168	18.05	19.77	0.01	7.64	1.225	267
43.200	18.05	19.76	0.00	7.64	1.225	267
43.232	18.04	19.75	0.01	7.64	1.225	267
43.264	18.04	19.75	0.01	7.65	1.225	267
43.296	18.05	19.77	0.01	7.64	1.225	267
43.328	18.06	19.77	0.00	7.64	1.225	267
43.360	18.06	19.78	-0.00	7.63	1.229	268
43.392	18.06	19.78	0.00	7.64	1.229	268
43.424	18.07	19.79	0.01	7.64	1.229	268
43.456	18.07	19.79	0.01	7.64	1.229	268
43.488	18.07	19.79	0.00	7.64	1.229	268
43.520	18.04	19.75	0.00	7.64	1.229	268
43.552	18.03	19.74	0.00	7.64	1.229	268
43.584	18.01	19.73	0.00	7.64	1.229	268
43.616	18.00	19.72	0.01	7.64	1.229	268
43.648	17.99	19.70	0.01	7.64	1.229	268
43.680	17.99	19.71	0.00	7.64	1.229	268
43.712	18.00	19.72	0.00	7.64	1.229	268
43.744	18.01	19.72	0.01	7.65	1.229	268
43.776	18.03	19.74	0.00	7.64	1.229	268
43.808	18.05	19.76	0.00	7.64	1.229	268
43.840	18.05	19.77	0.00	7.64	1.225	267
43.872	18.06	19.77	0.00	7.64	1.225	267
43.904	18.05	19.76	0.01	7.64	1.225	267
43.936	18.04	19.75	0.00	7.64	1.225	267
43.968	18.01	19.73	0.01	7.64	1.225	267
44.000	17.99	19.71	0.00	7.64	1.225	267
44.032	17.99	19.71	0.01	7.64	1.225	267
44.064	18.01	19.72	0.01	7.64	1.225	267
44.096	18.02	19.74	0.00	7.64	1.225	267
44.128	18.03	19.75	0.01	7.64	1.225	267
44.160	18.04	19.76	0.00	7.64	1.225	267
44.192	18.04	19.76	0.01	7.64	1.225	267
44.224	18.04	19.75	0.01	7.64	1.225	267
44.256	18.03	19.74	0.01	7.64	1.225	267
44.288	18.03	19.74	0.00	7.64	1.229	268
44.320	18.04	19.76	0.01	7.64	1.229	268
44.352	18.04	19.76	0.01	7.64	1.229	268
44.384	18.06	19.77	0.01	7.64	1.229	268
44.416	18.07	19.78	0.01	7.64	1.229	268
44.448	18.07	19.78	0.00	7.64	1.229	268
44.480	18.06	19.78	0.00	7.64	1.229	268
44.512	18.05	19.77	0.00	7.64	1.229	268
44.544	18.05	19.77	0.01	7.64	1.229	268
44.576	18.05	19.77	0.00	7.64	1.229	268
44.608	18.05	19.77	0.01	7.64	1.229	268
44.640	18.05	19.77	0.01	7.64	1.229	268
44.672	18.06	19.77	0.01	7.64	1.229	268
44.704	18.06	19.78	0.01	7.64	1.229	268
44.736	18.06	19.78	0.00	7.64	1.229	268
44.768	18.08	19.79	0.01	7.64	1.229	268
44.800	18.07	19.79	0.00	7.64	1.229	268
44.832	18.07	19.79	0.01	7.64	1.229	268
44.864	18.06	19.78	0.00	7.64	1.229	268
44.896	18.06	19.78	0.01	7.64	1.229	268
44.928	18.06	19.77	0.01	7.64	1.229	268
44.960	18.05	19.77	0.00	7.64	1.229	268
44.992	18.04	19.76	0.01	7.64	1.229	268
45.024	18.04	19.75	0.01	7.64	1.229	268
45.056	18.04	19.76	0.00	7.64	1.229	268
45.088	18.05	19.76	0.00	7.64	1.229	268
45.120	18.04	19.76	0.01	7.64	1.229	268
45.152	18.04	19.76	0.01	7.64	1.229	268
45.184	18.05	19.76	0.01	7.64	1.229	268
45.216	18.04	19.75	0.00	7.64	1.229	268
45.248	18.03	19.75	0.00	7.64	1.234	269
45.280	18.02	19.73	0.01	7.64	1.234	269
45.312	18.01	19.73	0.01	7.64	1.234	269
45.344	18.01	19.72	0.00	7.64	1.234	269
45.376	17.99	19.70	0.01	7.64	1.234	269
45.408	17.99	19.70	0.00	7.64	1.234	269
45.440	17.98	19.70	0.00	7.64	1.234	269
45.472	17.98	19.69	0.01	7.64	1.234	269
45.504	17.99	19.70	0.01	7.64	1.234	269
45.536	18.00	19.71	0.01	7.64	1.234	269
45.568	18.01	19.73	0.01	7.64	1.234	269
45.600	18.03	19.74	0.01	7.64	1.234	269
45.632	18.04	19.76	0.01	7.64	1.234	269
45.664	18.06	19.77	0.00	7.64	1.234	269
45.696	18.06	19.77	0.01	7.64	1.234	269
45.728	18.06	19.78	0.01	7.64	1.234	269
45.760	18.07	19.79	0.00	7.64	1.234	269
45.792	18.06	19.78	0.01	7.64	1.234	269
45.824	18.05	19.77	0.01	7.64	1.234	269
45.856	18.05	19.77	0.01	7.64	1.234	269
45.888	18.05	19.77	0.00	7.64	1.234	269
45.920	18.06	19.77	0.01	7.64	1.234	269
45.952	18.07	19.79	0.01	7.64	1.234	269
45.984	18.06	19.78	0.00	7.64	1.234	269
46.016	18.06	19.77	0.00	7.64	1.234	269
46.048	18.04	19.76	-0.00	7.63	1.234	269
46.080	18.02	19.73	0.00	7.64	1.234	269
46.112	17.99	19.71	0.01	7.64	1.234	269
46.144	17.97	19.68	0.00	7.64	1.234	269
46.176	17.97	19.68	0.00	7.64	1.239	270
46.208	17.97	19.68	0.01	7.64	1.239	270
46.240	17.97	19.68	0.00	7.64	1.239	270
46.272	17.96	19.67	0.01	7.64	1.239	270
46.304	17.95	19.66	0.01	7.64	1.239	270
46.336	17.93	19.64	0.00	7.64	1.239	270
46.368	17.91	19.62	0.00	7.64	1.239	270
46.400	17.89	19.61	0.01	7.64	1.239	270
46.432	17.86	19.58	0.01	7.64	1.239	270
46.464	17.83	19.55	0.00	7.64	1.239	270
46.496	17.80	19.52	0.00	7.64	1.239	270
46.528	17.80	19.51	0.00	7.64	1.239	270
46.560	17.79	19.51	0.00	7.64	1.239	270
46.592	17.79	19.50	0.01	7.64	1.239	270
46.624	17.78	19.50	0.01	7.64	1.239	270
46.656	17.78	19.50	0.00	7.64	1.234	269
46.688	17.78	19.49	0.01	7.64	1.234	269
46.720	17.78	19.49	0.00	7.64	1.234	269
46.752	17.78	19.50	0.01	7.64	1.234	269
46.784	17.79	19.51	0.01	7.64	1.234	269
46.816	17.79	19.51	0.00	7.64	1.234	269
46.848	17.80	19.52	0.00	7.64	1.234	269
46.880	17.81	19.53	0.01	7.64	1.234	269
46.912	17.80	19.52	0.01	7.64	1.234	269
46.944	17.79	19.50	0.01	7.64	1.234	269
46.976	17.78	19.49	0.00	7.64	1.234	269
47.008	17.79	19.51	0.00	7.64	1.234	269
47.040	17.80	19.52	0.00	7.64	1.234	269
47.072	17.81	19.53	0.01	7.64	1.234	269
47.104	17.81	19.53	0.00	7.64	1.234	269
47.136	17.82	19.54	0.00	7.64	1.234	269
47.168	17.83	19.54	0.00	7.64	1.234	269
47.200	17.83	19.54	0.01	7.64	1.234	269
47.232	17.83	19.54	0.01	7.64	1.234	269
47.264	17.81	19.53	0.01	7.64	1.234	269
47.296	17.79	19.51	0.00	7.64	1.234	269
47.328	17.78	19.49	0.00	7.64	1.234	269
47.360	17.76	19.47	0.01	7.64	1.234	269
47.392	17.74	19.46	0.01	7.64	1.234	269
47.424	17.73	19.45	0.00	7.64	1.234	269
47.456	17.72	19.43	0.01	7.64	1.234	269
47.488	17.70	19.41	0.00	7.64	1.234	269
47.520	17.69	19.40	0.01	7.64	1.234	269
47.552	17.68	19.39	0.01	7.64	1.234	269
47.584	17.67	19.38	0.01	7.64	1.234	269
47.616	17.67	19.38	0.00	7.64	1.234	269
47.648	17.67	19.39	0.01	7.64	1.234	269
47.680	17.68	19.40	0.01	7.64	1.234	269
47.712	17.70	19.42	0.01	7.64	1.234	269
47.744	17.71	19.42	0.01	7.64	1.234	269
47.776	17.71	19.42	0.00	7.64	1.234	269
47.808	17.71	19.42	0.00	7.64	1.234	269
47.840	17.71	19.43	0.01	7.64	1.234	269
47.872	17.71	19.43	0.00	7.64	1.234	269
47.904	17.71	19.43	0.01	7.64	1.234	269
47.936	17.70	19.41	0.01	7.64	1.234	269
47.968	17.69	19.40	-0.00	7.63	1.234	269
48.000	17.69	19.41	0.01	7.64	1.234	269
48.032	17.71	19.42	0.01	7.64	1.234	269
48.064	17.71	19.43	0.00	7.64	1.234	269
48.096	17.72	19.43	0.01	7.64	1.234	269
48.128	17.71	19.43	0.00	7.64	1.234	269
48.160	17.73	19.44	0.01	7.64	1.234	269
48.192	17.73	19.44	0.00	7.64	1.234	269
48.224	17.72	19.43	0.00	7.64	1.234	269
48.256	17.70	19.41	0.00	7.64	1.234	269
48.288	17.67	19.38	0.00	7.64	1.234	269
48.320	17.63	19.35	0.01	7.64	1.234	269
48.352	17.59	19.31	0.00	7.64	1.234	269
48.384	17.56	19.27	-0.00	7.63	1.234	269
48.416	17.54	19.25	0.01	7.64	1.234	269
48.448	17.53	19.25	0.00	7.64	1.234	269
48.480	17.54	19.25	0.00	7.64	1.234	269
48.512	17.55	19.26	0.01	7.64	1.229	268
48.544	17.55	19.26	0.01	7.64	1.229	268
48.576	17.53	19.25	0.01	7.64	1.229	268
48.608	17.52	19.23	0.01	7.64	1.229	268
48.640	17.51	19.23	0.01	7.64	1.229	268
48.672	17.51	19.22	0.00	7.64	1.229	268
48.704	17.51	19.23	0.00	7.64	1.229	268
48.736	17.50	19.21	0.00	7.64	1.229	268
48.768	17.49	19.20	0.01	7.64	1.229	268
48.800	17.48	19.20	0.01	7.64	1.229	268
48.832	17.47	19.18	0.00	7.64	1.229	268
48.864	17.46	19.17	0.00	7.64	1.229	268
48.896	17.44	19.15	0.00	7.64	1.229	268
48.928	17.42	19.14	0.01	7.64	1.229	268
48.960	17.41	19.13	0.01	7.64	1.229	268
48.992	17.41	19.13	0.01	7.64	1.229	268
49.024	17.42	19.13	0.00	7.64	1.229	268
49.056	17.41	19.13	0.01	7.64	1.229	268
49.088	17.41	19.13	0.00	7.64	1.229	268
49.120	17.41	19.13	0.01	7.64	1.229	268
49.152	17.41	19.13	0.00	7.64	1.229	268
49.184	17.42	19.13	0.01	7.64	1.229	268
49.216	17.42	19.14	0.00	7.64	1.229	268
49.248	17.42	19.14	0.01	7.64	1.229	268
49.280	17.42	19.13	0.01	7.64	1.229	268
49.312	17.41	19.13	0.01	7.64	1.229	268
49.344	17.41	19.12	0.00	7.64	1.229	268
49.376	17.40	19.11	0.01	7.64	1.229	268
49.408	17.38	19.09	0.01	7.64	1.229	268
49.440	17.37	19.09	0.01	7.64	1.229	268
49.472	17.38	19.09	0.00	7.64	1.229	268
49.504	17.39	19.10	0.00	7.64	1.229	268
49.536	17.39	19.11	0.01	7.64	1.229	268
49.568	17.39	19.11	0.00	7.64	1.229	268
49.600	17.39	19.11	0.01	7.64	1.229	268
49.632	17.38	19.09	0.01	7.64	1.229	268
49.664	17.36	19.08	0.00	7.64	1.229	268
49.696	17.34	19.06	0.00	7.64	1.229	268
49.728	17.32	19.04	0.01	7.64	1.229	268
49.760	17.31	19.03	0.00	7.64	1.229	268
49.792	17.30	19.02	0.00	7.64	1.229	268
49.824	17.30	19.02	-0.00	7.63	1.229	268
49.856	17.30	19.02	0.01	7.64	1.229	268
49.888	17.30	19.02	0.00	7.64	1.229	268
49.920	17.30	19.01	0.01	7.64	1.229	268
49.952	17.31	19.03	0.01	7.64	1.229	268
49.984	17.32	19.03	0.00	7.64	1.229	268
50.016	17.32	19.04	0.01	7.64	1.229	268
50.048	17.31	19.03	0.01	7.64	1.229	268
50.080	17.31	19.02	0.00	7.64	1.229	268
50.112	17.30	19.01	0.00	7.64	1.229	268
50.144	17.29	19.00	0.00	7.64	1.229	268
50.176	17.28	19.00	0.01	7.64	1.229	268
50.208	17.28	18.99	0.01	7.64	1.229	268
50.240	17.27	18.99	0.00	7.64	1.229	268
50.272	17.27	18.98	0.00	7.64	1.229	268
50.304	17.26	18.98	0.00	7.64	1.229	268
50.336	17.26	18.97	0.00	7.64	1.229	268
50.368	17.25	18.97	0.01	7.64	1.229	268
50.400	17.24	18.96	0.01	7.64	1.229	268
50.432	17.25	18.97	0.00	7.64	1.229	268
50.464	17.26	18.98	0.01	7.64	1.229	268
50.496	17.26	18.98	0.00	7.64	1.229	268
50.528	17.27	18.99	0.01	7.64	1.229	268
50.560	17.28	19.00	0.01	7.64	1.229	268
50.592	17.29	19.00	0.01	7.64	1.229	268
50.624	17.27	18.99	0.00	7.64	1.229	268
50.656	17.26	18.98	0.00	7.64	1.229	268
50.688	17.24	18.96	0.01	7.64	1.229	268
50.720	17.22	18.93	0.01	7.64	1.229	268
50.752	17.20	18.91	0.00	7.64	1.229	268
50.784	17.18	18.90	0.00	7.64	1.229	268
50.816	17.18	18.89	0.00	7.64	1.229	268
50.848	17.17	18.88	0.01	7.64	1.229	268
50.880	17.15	18.86	0.00	7.64	1.229	268
50.912	17.14	18.85	0.00	7.64	1.229	268
50.944	17.13	18.84	0.00	7.64	1.229	268
50.976	17.12	18.84	0.00	7.64	1.229	268
51.008	17.11	18.83	-0.00	7.63	1.229	268
51.040	17.11	18.82	0.00	7.64	1.229	268
51.072	17.10	18.82	0.00	7.64	1.229	268
51.104	17.10	18.82	0.01	7.64	1.229	268
51.136	17.11	18.83	0.00	7.64	1.229	268
51.168	17.12	18.84	0.00	7.64	1.229	268
51.200	17.13	18.84	0.01	7.64	1.229	268
51.232	17.12	18.84	-0.00	7.63	1.229	268
51.264	17.12	18.83	0.00	7.64	1.229	268
51.296	17.11	18.82	0.01	7.64	1.229	268
51.328	17.09	18.80	0.01	7.64	1.229	268
51.360	17.07	18.79	0.01	7.64	1.229	268
51.392	17.05	18.77	-0.00	7.63	1.229	268
51.424	17.05	18.77	0.01	7.64	1.229	268
51.456	17.06	18.78	0.00	7.64	1.229	268
51.488	17.08	18.79	0.00	7.64	1.229	268
51.520	17.09	18.80	0.00	7.64	1.229	268
51.552	17.10	18.82	0.00	7.64	1.229	268
51.584	17.11	18.83	0.01	7.64	1.229	268
51.616	17.12	18.83	0.01	7.64	1.229	268
51.648	17.12	18.83	0.01	7.64	1.229	268
51.680	17.12	18.83	0.00	7.64	1.229	268
51.712	17.11	18.83	0.00	7.64	1.229	268
51.744	17.10	18.82	0.00	7.64	1.229	268
51.776	17.09	18.80	-0.00	7.63	1.229	268
51.808	17.08	18.79	0.01	7.64	1.234	269
51.840	17.08	18.79	0.00	7.64	1.234	269
51.872	17.07	18.78	0.00	7.64	1.234	269
51.904	17.06	18.77	0.01	7.64	1.234	269
51.936	17.05	18.76	0.01	7.64	1.234	269
51.968	17.04	18.75	0.01	7.64	1.234	269
52.000	17.03	18.74	0.00	7.64	1.234	269
52.032	17.02	18.73	0.01	7.64	1.234	269
52.064	17.01	18.72	0.00	7.64	1.234	269
52.096	16.99	18.71	0.01	7.64	1.234	269
52.128	16.99	18.71	0.01	7.64	1.234	269
52.160	17.00	18.71	0.00	7.64	1.234	269
52.192	17.00	18.72	-0.00	7.63	1.234	269
52.224	16.99	18.71	0.00	7.64	1.234	269
52.256	16.98	18.69	0.01	7.64	1.234	269
52.288	16.96	18.68	0.01	7.64	1.234	269
52.320	16.95	18.66	0.00	7.64	1.234	269
52.352	16.92	18.64	0.00	7.64	1.234	269
52.384	16.90	18.62	0.00	7.64	1.234	269
52.416	16.89	18.60	0.01	7.64	1.234	269
52.448	16.88	18.59	0.00	7.64	1.234	269
52.480	16.87	18.59	0.00	7.64	1.234	269
52.512	16.88	18.59	0.00	7.64	1.234	269
52.544	16.88	18.60	0.00	7.64	1.234	269
52.576	16.88	18.60	0.01	7.64	1.234	269
52.608	16.87	18.59	0.01	7.64	1.234	269
52.640	16.87	18.58	-0.00	7.63	1.234	269
52.672	16.86	18.58	0.00	7.64	1.234	269
52.704	16.84	18.55	0.00	7.64	1.234	269
52.736	16.81	18.53	0.01	7.64	1.229	268
52.768	16.80	18.52	0.01	7.64	1.229	268
52.800	16.80	18.51	0.00	7.64	1.229	268
52.832	16.79	18.50	0.00	7.64	1.229	268
52.864	16.78	18.49	0.01	7.64	1.229	268
52.896	16.78	18.49	0.01	7.64	1.229	268
52.928	16.78	18.49	0.01	7.64	1.229	268
52.960	16.78	18.49	0.00	7.64	1.229	268
52.992	16.77	18.48	0.00	7.64	1.229	268
53.024	16.76	18.47	0.00	7.64	1.229	268
53.056	16.75	18.47	0.01	7.64	1.229	268
53.088	16.74	18.45	0.00	7.64	1.229	268
53.120	16.73	18.44	0.00	7.64	1.229	268
53.152	16.72	18.44	0.00	7.64	1.229	268
53.184	16.73	18.44	0.01	7.64	1.229	268
53.216	16.72	18.44	0.01	7.64	1.229	268
53.248	16.71	18.43	0.01	7.64	1.229	268
53.280	16.70	18.41	0.01	7.64	1.229	268
53.312	16.68	18.40	0.00	7.64	1.229	268
53.344	16.67	18.38	0.01	7.64	1.229	268
53.376	16.65	18.37	0.01	7.64	1.229	268
53.408	16.65	18.36	0.00	7.64	1.229	268
53.440	16.63	18.35	0.01	7.64	1.229	268
53.472	16.61	18.33	0.01	7.64	1.229	268
53.504	16.60	18.31	0.01	7.64	1.229	268
53.536	16.59	18.31	0.01	7.64	1.229	268
53.568	16.60	18.31	0.01	7.64	1.229	268
53.600	16.61	18.32	-0.00	7.63	1.229	268
53.632	16.62	18.33	0.01	7.64	1.229	268
53.664	16.63	18.34	0.01	7.64	1.229	268
53.696	16.63	18.34	0.01	7.64	1.229	268
53.728	16.63	18.34	0.00	7.64	1.229	268
53.760	16.64	18.35	0.00	7.64	1.229	268
53.792	16.64	18.36	0.00	7.64	1.229	268
53.824	16.66	18.37	0.00	7.64	1.229	268
53.856	16.67	18.38	0.01	7.64	1.229	268
53.888	16.68	18.40	0.01	7.64	1.229	268
53.920	16.70	18.42	0.00	7.64	1.229	268
53.952	16.71	18.43	0.01	7.64	1.229	268
53.984	16.72	18.44	0.00	7.64	1.229	268
54.016	16.73	18.45	0.01	7.64	1.229	268
54.048	16.74	18.45	0.00	7.64	1.229	268
54.080	16.74	18.45	0.00	7.64	1.229	268
54.112	16.73	18.44	0.00	7.64	1.229	268
54.144	16.72	18.43	0.01	7.64	1.229	268
54.176	16.70	18.42	0.01	7.64	1.229	268
54.208	16.70	18.42	0.00	7.64	1.229	268
54.240	16.70	18.41	0.01	7.64	1.229	268
54.272	16.69	18.41	0.01	7.64	1.229	268
54.304	16.69	18.40	0.01	7.64	1.229	268
54.336	16.68	18.39	0.01	7.64	1.229	268
54.368	16.66	18.38	0.00	7.64	1.229	268
54.400	16.66	18.37	0.00	7.64	1.229	268
54.432	16.65	18.37	0.01	7.64	1.229	268
54.464	16.64	18.36	0.00	7.64	1.229	268
54.496	16.63	18.34	0.00	7.64	1.229	268
54.528	16.61	18.33	0.00	7.64	1.229	268
54.560	16.61	18.32	0.00	7.64	1.229	268
54.592	16.60	18.32	0.00	7.64	1.229	268
54.624	16.59	18.30	0.00	7.64	1.229	268
54.656	16.57	18.29	0.00	7.64	1.229	268
54.688	16.55	18.27	-0.00	7.63	1.229	268
54.720	16.54	18.25	0.01	7.64	1.229	268
54.752	16.52	18.23	0.01	7.64	1.229	268
54.784	16.49	18.21	0.00	7.64	1.229	268
54.816	16.47	18.18	0.01	7.64	1.229	268
54.848	16.46	18.18	0.00	7.64	1.229	268
54.880	16.47	18.19	0.00	7.64	1.229	268
54.912	16.48	18.20	0.01	7.64	1.229	268
54.944	16.50	18.22	0.01	7.64	1.229	268
54.976	16.52	18.23	0.00	7.64	1.229	268
55.008	16.53	18.25	0.00	7.64	1.229	268
55.040	16.54	18.25	-0.00	7.63	1.229	268
55.072	16.53	18.25	0.01	7.64	1.225	267
55.104	16.54	18.26	0.00	7.64	1.225	267
55.136	16.55	18.26	0.01	7.64	1.225	267
55.168	16.55	18.27	0.00	7.64	1.225	267
55.200	16.56	18.28	0.01	7.64	1.225	267
55.232	16.56	18.28	0.00	7.64	1.225	267
55.264	16.56	18.27	0.01	7.64	1.225	267
55.296	16.55	18.26	0.00	7.64	1.225	267
55.328	16.52	18.24	0.00	7.64	1.225	267
55.360	16.52	18.24	0.00	7.64	1.225	267
55.392	16.52	18.24	0.01	7.64	1.225	267
55.424	16.52	18.23	0.01	7.64	1.225	267
55.456	16.51	18.22	0.00	7.64	1.225	267
55.488	16.50	18.22	-0.00	7.63	1.225	267
55.520	16.50	18.22	0.01	7.64	1.225	267
55.552	16.49	18.20	0.00	7.64	1.229	268
55.584	16.48	18.20	0.00	7.64	1.229	268
55.616	16.48	18.19	0.01	7.64	1.229	268
55.648	16.47	18.18	0.00	7.64	1.229	268
55.680	16.45	18.17	0.01	7.64	1.229	268
55.712	16.44	18.15	0.00	7.64	1.229	268
55.744	16.43	18.15	0.01	7.64	1.229	268
55.776	16.43	18.14	0.00	7.64	1.229	268
55.808	16.41	18.13	0.00	7.64	1.229	268
55.840	16.41	18.12	0.00	7.64	1.229	268
55.872	16.41	18.12	0.01	7.64	1.229	268
55.904	16.41	18.13	0.01	7.64	1.229	268
55.936	16.42	18.13	0.01	7.64	1.229	268
55.968	16.41	18.13	0.01	7.64	1.229	268
56.000	16.42	18.13	0.01	7.64	1.229	268
56.032	16.41	18.12	0.00	7.64	1.229	268
56.064	16.41	18.13	0.01	7.64	1.229	268
56.096	16.42	18.14	0.00	7.64	1.229	268
56.128	16.42	18.13	0.00	7.64	1.229	268
56.160	16.43	18.14	0.00	7.64	1.229	268
56.192	16.43	18.14	0.01	7.64	1.229	268
56.224	16.42	18.13	0.01	7.64	1.229	268
56.256	16.41	18.12	0.01	7.64	1.229	268
56.288	16.38	18.10	0.00	7.64	1.229	268
56.320	16.36	18.08	0.01	7.64	1.229	268
56.352	16.36	18.07	0.00	7.64	1.229	268
56.384	16.37	18.08	0.01	7.64	1.229	268
56.416	16.37	18.08	0.00	7.64	1.229	268
56.448	16.37	18.08	0.00	7.64	1.229	268
56.480	16.37	18.08	0.00	7.64	1.229	268
56.512	16.37	18.09	0.01	7.64	1.229	268
56.544	16.37	18.08	0.00	7.64	1.229	268
56.576	16.38	18.10	0.00	7.64	1.229	268
56.608	16.40	18.11	0.00	7.64	1.229	268
56.640	16.40	18.12	0.00	7.64	1.229	268
56.672	16.40	18.11	0.00	7.64	1.229	268
56.704	16.38	18.09	0.01	7.64	1.229	268
56.736	16.35	18.07	0.00	7.64	1.229	268
56.768	16.33	18.04	0.00	7.64	1.229	268
56.800	16.30	18.02	0.01	7.64	1.229	268
56.832	16.30	18.01	0.00	7.64	1.229	268
56.864	16.30	18.01	0.01	7.64	1.229	268
56.896	16.29	18.00	0.01	7.64	1.229	268
56.928	16.27	17.99	0.00	7.64	1.229	268
56.960	16.25	17.97	0.00	7.64	1.229	268
56.992	16.23	17.95	0.00	7.64	1.229	268
57.024	16.21	17.93	0.01	7.64	1.229	268
57.056	16.20	17.92	0.00	7.64	1.229	268
57.088	16.20	17.91	0.00	7.64	1.229	268
57.120	16.20	17.91	0.00	7.64	1.229	268
57.152	16.19	17.90	0.00	7.64	1.229	268
57.184	16.18	17.89	0.01	7.64	1.229	268
57.216	16.17	17.89	0.00	7.64	1.229	268
57.248	16.16	17.87	0.00	7.64	1.229	268
57.280	16.13	17.85	0.00	7.64	1.229	268
57.312	16.12	17.84	0.01	7.64	1.229	268
57.344	16.12	17.84	0.01	7.64	1.229	268
57.376	16.13	17.85	0.01	7.64	1.229	268
57.408	16.14	17.85	0.00	7.64	1.229	268
57.440	16.14	17.85	0.00	7.64	1.229	268
57.472	16.14	17.85	0.00	7.64	1.229	268
57.504	16.14	17.85	0.00	7.64	1.229	268
57.536	16.14	17.85	0.00	7.64	1.229	268
57.568	16.15	17.86	0.00	7.64	1.229	268
57.600	16.15	17.87	0.01	7.64	1.229	268
57.632	16.14	17.85	0.01	7.64	1.229	268
57.664	16.13	17.84	0.01	7.64	1.229	268
57.696	16.12	17.83	0.00	7.64	1.229	268
57.728	16.11	17.82	0.00	7.64	1.229	268
57.760	16.10	17.81	0.00	7.64	1.229	268
57.792	16.08	17.80	0.00	7.64	1.229	268
57.824	16.08	17.80	0.01	7.64	1.229	268
57.856	16.08	17.80	0.00	7.64	1.229	268
57.888	16.09	17.80	0.00	7.64	1.234	269
57.920	16.09	17.80	0.00	7.64	1.234	269
57.952	16.09	17.80	0.01	7.64	1.234	269
57.984	16.08	17.80	0.01	7.64	1.234	269
58.016	16.08	17.79	0.01	7.64	1.234	269
58.048	16.08	17.79	0.00	7.64	1.234	269
58.080	16.08	17.80	-0.00	7.63	1.234	269
58.112	16.09	17.80	0.01	7.64	1.234	269
58.144	16.09	17.81	0.01	7.64	1.234	269
58.176	16.09	17.81	0.00	7.64	1.234	269
58.208	16.10	17.82	0.00	7.64	1.234	269
58.240	16.11	17.82	0.00	7.64	1.234	269
58.272	16.10	17.81	0.01	7.64	1.234	269
58.304	16.08	17.79	0.01	7.64	1.234	269
58.336	16.07	17.78	0.01	7.64	1.229	268
58.368	16.06	17.78	0.00	7.64	1.229	268
58.400	16.07	17.78	0.00	7.64	1.229	268
58.432	16.06	17.78	0.01	7.64	1.229	268
58.464	16.08	17.79	0.00	7.64	1.229	268
58.496	16.08	17.80	0.00	7.64	1.229	268
58.528	16.08	17.80	0.01	7.64	1.229	268
58.560	16.09	17.80	0.01	7.64	1.229	268
58.592	16.09	17.80	0.01	7.64	1.229	268
58.624	16.08	17.79	0.01	7.64	1.229	268
58.656	16.07	17.79	-0.00	7.63	1.229	268
58.688	16.05	17.77	0.01	7.64	1.229	268
58.720	16.05	17.76	0.01	7.64	1.229	268
58.752	16.04	17.75	0.01	7.64	1.229	268
58.784	16.03	17.74	0.01	7.64	1.229	268
58.816	16.03	17.74	0.00	7.64	1.229	268
58.848	16.03	17.74	0.01	7.64	1.229	268
58.880	16.03	17.74	0.01	7.64	1.229	268
58.912	16.02	17.74	0.01	7.64	1.229	268
58.944	16.02	17.73	0.00	7.64	1.229	268
58.976	16.02	17.74	0.00	7.64	1.229	268
59.008	16.03	17.74	0.00	7.64	1.229	268
59.040	16.04	17.76	0.00	7.64	1.229	268
59.072	16.06	17.77	0.01	7.64	1.229	268
59.104	16.07	17.79	0.00	7.64	1.229	268
59.136	16.08	17.80	0.00	7.64	1.229	268
59.168	16.09	17.80	0.00	7.64	1.229	268
59.200	16.09	17.80	0.01	7.64	1.229	268
59.232	16.07	17.79	0.01	7.64	1.229	268
59.264	16.05	17.77	0.01	7.64	1.229	268
59.296	16.03	17.74	-0.00	7.63	1.229	268
59.328	16.01	17.73	0.00	7.64	1.229	268
59.360	16.00	17.72	0.00	7.64	1.229	268
59.392	15.99	17.70	0.01	7.64	1.229	268
59.424	15.97	17.69	0.01	7.64	1.229	268
59.456	15.95	17.67	0.00	7.64	1.229	268
59.488	15.94	17.65	0.00	7.64	1.229	268
59.520	15.92	17.64	0.01	7.64	1.229	268
59.552	15.91	17.63	0.00	7.64	1.229	268
59.584	15.91	17.62	0.00	7.64	1.229	268
59.616	15.90	17.62	-0.00	7.63	1.229	268
59.648	15.88	17.59	0.00	7.64	1.229	268
59.680	15.86	17.58	0.00	7.64	1.229	268
59.712	15.84	17.55	0.00	7.64	1.229	268
59.744	15.81	17.53	0.00	7.64	1.229	268
59.776	15.79	17.51	0.00	7.64	1.229	268
59.808	15.79	17.50	0.01	7.64	1.229	268
59.840	15.79	17.50	0.01	7.64	1.229	268
59.872	15.79	17.50	0.01	7.64	1.229	268
59.904	15.79	17.50	0.01	7.64	1.229	268
59.936	15.81	17.52	-0.00	7.63	1.229	268
59.968	15.81	17.53	-0.00	7.63	1.229	268
60.000	15.82	17.53	0.01	7.64	1.229	268
60.032	15.83	17.54	0.01	7.64	1.229	268
60.064	15.83	17.54	0.00	7.64	1.229	268
60.096	15.82	17.54	0.00	7.64	1.229	268
60.128	15.81	17.53	0.01	7.64	1.229	268
60.160	15.81	17.52	0.01	7.64	1.229	268
60.192	15.80	17.52	0.00	7.64	1.229	268
60.224	15.80	17.52	-0.00	7.63	1.229	268
60.256	15.79	17.51	0.00	7.64	1.229	268
60.288	15.79	17.50	0.01	7.64	1.229	268
60.320	15.79	17.50	0.00	7.64	1.229	268
60.352	15.80	17.51	0.00	7.64	1.229	268
60.384	15.81	17.52	0.00	7.64	1.229	268
60.416	15.82	17.53	0.00	7.64	1.229	268
60.448	15.83	17.54	0.00	7.64	1.229	268
60.480	15.82	17.54	0.01	7.64	1.229	268
60.512	15.82	17.53	0.00	7.64	1.229	268
60.544	15.81	17.53	-0.00	7.63	1.229	268
60.576	15.81	17.53	0.00	7.64	1.229	268
60.608	15.80	17.52	0.00	7.64	1.229	268
60.640	15.79	17.50	0.00	7.64	1.229	268
60.672	15.76	17.48	0.01	7.64	1.225	267
60.704	15.74	17.46	0.00	7.64	1.225	267
60.736	15.71	17.42	0.00	7.64	1.225	267
60.768	15.69	17.41	0.00	7.64	1.225	267
60.800	15.69	17.40	0.01	7.64	1.225	267
60.832	15.68	17.40	0.01	7.64	1.225	267
60.864	15.68	17.40	0.00	7.64	1.225	267
60.896	15.67	17.39	0.01	7.64	1.225	267
60.928	15.67	17.39	0.00	7.64	1.225	267
60.960	15.67	17.38	0.01	7.64	1.225	267
60.992	15.65	17.37	0.01	7.64	1.225	267
61.024	15.64	17.36	0.00	7.64	1.225	267
61.056	15.63	17.35	0.01	7.64	1.225	267
61.088	15.63	17.34	0.01	7.64	1.225	267
61.120	15.62	17.34	0.01	7.64	1.225	267
61.152	15.63	17.34	0.00	7.64	1.225	267
61.184	15.63	17.35	0.01	7.64	1.225	267
61.216	15.64	17.35	0.00	7.64	1.225	267
61.248	15.64	17.35	0.01	7.64	1.225	267
61.280	15.63	17.35	0.01	7.64	1.225	267
61.312	15.64	17.35	0.00	7.64	1.225	267
61.344	15.64	17.35	0.00	7.64	1.225	267
61.376	15.63	17.34	0.01	7.64	1.225	267
61.408	15.63	17.34	0.00	7.64	1.225	267
61.440	15.63	17.35	0.01	7.64	1.225	267
61.472	15.65	17.36	0.01	7.64	1.225	267
61.504	15.66	17.37	0.01	7.64	1.225	267
61.536	15.67	17.38	0.01	7.64	1.225	267
61.568	15.67	17.39	0.01	7.64	1.225	267
61.600	15.68	17.39	0.01	7.64	1.225	267
61.632	15.68	17.40	0.01	7.64	1.229	268
61.664	15.68	17.39	0.00	7.64	1.229	268
61.696	15.63	17.35	0.00	7.64	1.229	268
61.728	14.59	16.31	0.00	7.64	1.229	268
61.760	12.44	14.15	0.01	7.64	1.229	268
61.792	10.16	11.88	0.00	7.64	1.229	268
61.824	8.20	9.92	0.00	7.64	1.229	268
61.856	6.66	8.38	0.00	7.64	1.229	268
61.888	5.54	7.25	0.00	7.64	1.229	268
61.920	4.73	6.45	-0.00	7.63	1.229	268
61.952	4.23	5.94	0.00	7.64	1.229	268
61.984	3.97	5.69	0.00	7.64	1.229	268
62.016	3.88	5.60	-0.00	7.63	1.229	268
62.048	3.90	5.62	0.00	7.64	1.229	268
62.080	3.92	5.64	-0.00	7.63	0.326	71
62.112	3.94	5.65	0.00	7.64	0.326	71
62.144	3.91	5.63	0.00	7.64	0.326	71
62.176	3.85	5.56	0.00	7.64	0.326	71
62.208	3.76	5.48	-0.00	7.63	0.326	71
62.240	3.64	5.36	-0.00	7.63	0.326	71
62.272	3.50	5.22	0.00	7.64	0.326	71
62.304	3.36	5.07	-0.00	7.63	0.326	71
62.336	3.22	4.93	-0.00	7.63	0.326	71
62.368	3.09	4.80	0.00	7.64	0.326	71
62.400	2.98	4.69	0.00	7.64	0.326	71
62.432	2.88	4.60	-0.00	7.63	0.326	71
62.464	2.80	4.52	0.00	7.64	0.326	71
62.496	2.73	4.45	0.00	7.64	0.326	71
62.528	2.68	4.39	0.00	7.64	0.326	71
62.560	2.63	4.34	0.00	7.64	0.000	0
62.592	2.59	4.30	0.00	7.64	0.000	0
62.624	2.55	4.26	-0.01	7.63	0.000	0
62.656	2.51	4.23	-0.00	7.63	0.000	0
62.688	2.48	4.19	0.00	7.64	0.000	0
62.720	2.44	4.15	0.00	7.64	0.000	0
62.752	2.39	4.11	-0.00	7.63	0.000	0
62.784	2.35	4.06	-0.00	7.63	0.000	0
62.816	2.30	4.02	-0.00	7.63	0.000	0
62.848	2.26	3.97	-0.00	7.63	0.000	0
62.880	2.21	3.93	-0.00	7.63	0.000	0
62.912	2.16	3.88	-0.00	7.63	0.000	0
62.944	2.12	3.83	-0.00	7.63	0.000	0
62.976	2.07	3.79	0.00	7.64	0.000	0
63.008	2.03	3.75	0.00	7.64	0.000	0
63.040	1.99	3.70	-0.00	7.63	0.000	0
63.072	1.95	3.67	-0.00	7.63	0.000	0
63.104	1.91	3.63	-0.01	7.63	0.000	0
63.136	1.87	3.59	-0.00	7.63	0.000	0
63.168	1.84	3.55	0.00	7.64	0.000	0
63.200	1.80	3.52	-0.00	7.63	0.000	0
63.232	1.77	3.48	-0.00	7.63	0.000	0
63.264	1.74	3.45	-0.00	7.63	0.000	0
63.296	1.71	3.43	-0.00	7.63	0.000	0
63.328	1.68	3.39	-0.00	7.63	0.000	0
63.360	1.65	3.36	0.00	7.64	0.000	0
63.392	1.61	3.33	-0.00	7.63	0.000	0
63.424	1.58	3.30	-0.00	7.63	0.000	0
63.456	1.55	3.27	-0.00	7.63	0.000	0
