Tempo(s)    P0(KPa) P0+Coluna(KPa)  P1(KPa) P1+Coluna(KPa)  Vazao(L/min)    Pulsos
0.000	-1.53	2.86	0.00	7.69	0.000	0
0.032	-1.56	2.84	-0.00	7.69	0.000	0
0.064	-1.57	2.82	0.00	7.70	0.000	0
0.096	-1.60	2.80	-0.00	7.69	0.000	0
0.128	-1.61	2.78	0.00	7.69	0.000	0
0.160	-1.64	2.75	-0.00	7.69	0.000	0
0.192	-1.67	2.72	-0.00	7.69	0.000	0
0.224	-1.70	2.69	-0.00	7.69	0.000	0
0.256	-1.73	2.66	0.00	7.70	0.000	0
0.288	-1.76	2.64	0.00	7.69	0.000	0
0.320	-1.78	2.62	0.00	7.69	0.000	0
0.352	-1.79	2.60	-0.00	7.69	0.000	0
0.384	-1.81	2.58	0.00	7.70	0.000	0
0.416	-1.83	2.57	0.00	7.69	0.000	0
0.448	-1.85	2.55	-0.00	7.69	0.000	0
0.480	-1.87	2.53	-0.00	7.69	0.000	0
0.512	-1.89	2.50	-0.00	7.69	0.000	0
0.544	-1.91	2.48	0.00	7.69	0.000	0
0.576	-1.94	2.45	0.00	7.70	0.000	0
0.608	-1.97	2.42	-0.00	7.69	0.000	0
0.640	-2.00	2.40	0.00	7.69	0.000	0
0.672	-2.02	2.37	-0.00	7.69	0.000	0
0.704	-2.04	2.35	0.00	7.69	0.000	0
0.736	-2.06	2.33	0.00	7.70	0.000	0
0.768	-2.08	2.32	0.00	7.70	0.000	0
0.800	-2.09	2.30	-0.00	7.69	0.000	0
0.832	-2.11	2.28	-0.00	7.69	0.000	0
0.864	-2.12	2.27	0.00	7.70	0.000	0
0.896	-2.13	2.26	-0.00	7.69	0.000	0
0.928	-2.15	2.24	0.00	7.69	0.000	0
0.960	-2.18	2.21	0.00	7.69	0.000	0
0.992	-2.21	2.18	-0.00	7.69	0.000	0
1.024	-2.24	2.15	0.00	7.69	0.000	0
1.056	-2.27	2.12	-0.00	7.69	0.000	0
1.088	-2.30	2.09	-0.00	7.69	0.000	0
1.120	-2.33	2.07	-0.00	7.69	0.000	0
1.152	-2.35	2.04	-0.00	7.69	0.000	0
1.184	-2.36	2.03	0.00	7.69	0.000	0
1.216	-2.37	2.02	0.00	7.69	0.000	0
1.248	-2.38	2.02	0.00	7.69	0.000	0
1.280	-2.38	2.02	-0.00	7.69	0.000	0
1.312	-2.37	2.02	-0.00	7.69	0.000	0
1.344	-2.37	2.03	-0.00	7.69	0.000	0
1.376	-2.36	2.03	0.00	7.70	0.000	0
1.408	-2.36	2.03	0.00	7.69	0.000	0
1.440	-2.36	2.03	-0.01	7.69	0.000	0
1.472	-2.36	2.03	-0.00	7.69	0.000	0
1.504	-2.36	2.03	0.00	7.70	0.000	0
1.536	-2.36	2.03	0.00	7.69	0.000	0
1.568	-2.36	2.03	-0.00	7.69	0.000	0
1.600	-2.36	2.03	-0.00	7.69	0.000	0
1.632	-2.36	2.03	-0.00	7.69	0.000	0
1.664	-2.36	2.03	-0.00	7.69	0.000	0
1.696	-2.36	2.03	0.00	7.69	0.000	0
1.728	-2.36	2.03	0.00	7.70	0.000	0
1.760	-2.36	2.03	0.00	7.69	0.000	0
1.792	-2.36	2.03	-0.00	7.69	0.000	0
1.824	-2.37	2.03	-0.01	7.69	0.000	0
1.856	-2.25	2.14	0.01	7.70	0.000	0
1.888	-1.53	2.86	0.01	7.70	0.000	0
1.920	-0.31	4.08	0.01	7.70	0.000	0
1.952	1.21	5.60	0.00	7.70	0.000	0
1.984	2.79	7.18	0.01	7.70	0.000	0
2.016	4.22	8.62	0.01	7.70	0.000	0
2.048	5.49	9.88	0.01	7.70	0.000	0
2.080	6.61	11.00	0.01	7.70	0.000	0
2.112	7.59	11.98	0.01	7.70	0.000	0
2.144	8.52	12.92	0.01	7.70	0.000	0
2.176	9.70	14.09	0.01	7.70	0.628	137
2.208	10.75	15.14	0.01	7.70	0.628	137
2.240	11.66	16.05	0.01	7.70	0.628	137
2.272	12.44	16.83	0.01	7.70	0.628	137
2.304	13.10	17.49	0.01	7.70	0.628	137
2.336	13.65	18.04	0.01	7.71	0.628	137
2.368	14.11	18.50	0.01	7.70	0.628	137
2.400	14.49	18.88	0.01	7.70	0.628	137
2.432	14.80	19.20	0.01	7.70	0.628	137
2.464	15.05	19.44	0.01	7.71	0.628	137
2.496	15.24	19.64	0.02	7.71	0.628	137
2.528	15.40	19.79	0.01	7.70	0.628	137
2.560	15.52	19.91	0.00	7.70	0.628	137
2.592	15.61	20.00	0.01	7.70	0.628	137
2.624	15.68	20.07	0.01	7.70	0.628	137
2.656	15.73	20.12	0.01	7.71	1.138	248
2.688	15.77	20.16	0.01	7.70	1.138	248
2.720	15.79	20.19	0.01	7.70	1.138	248
2.752	15.81	20.20	0.01	7.70	1.138	248
2.784	15.82	20.21	0.01	7.70	1.138	248
2.816	15.82	20.22	0.01	7.71	1.138	248
2.848	15.83	20.22	0.01	7.70	1.138	248
2.880	15.83	20.23	0.01	7.70	1.138	248
2.912	15.85	20.24	0.00	7.70	1.138	248
2.944	15.86	20.25	0.01	7.70	1.138	248
2.976	15.89	20.28	0.01	7.71	1.138	248
3.008	15.91	20.30	0.01	7.70	1.138	248
3.040	15.92	20.32	0.01	7.70	1.138	248
3.072	15.93	20.33	0.00	7.70	1.138	248
3.104	15.94	20.33	0.01	7.70	1.170	255
3.136	15.95	20.34	0.02	7.71	1.170	255
3.168	15.95	20.34	0.01	7.70	1.170	255
3.200	15.96	20.35	0.01	7.70	1.170	255
3.232	15.97	20.36	0.01	7.70	1.170	255
3.264	15.96	20.35	0.02	7.71	1.170	255
3.296	15.95	20.34	0.01	7.70	1.170	255
3.328	15.93	20.32	0.01	7.70	1.170	255
3.360	15.91	20.31	0.01	7.70	1.170	255
3.392	15.90	20.29	0.01	7.70	1.170	255
3.424	15.88	20.27	0.01	7.70	1.170	255
3.456	15.87	20.26	0.01	7.70	1.170	255
3.488	15.86	20.25	0.01	7.70	1.170	255
3.520	15.86	20.25	0.01	7.70	1.170	255
3.552	15.86	20.25	0.01	7.70	1.170	255
3.584	15.85	20.25	0.01	7.70	1.179	257
3.616	15.84	20.23	0.01	7.70	1.179	257
3.648	15.82	20.21	0.00	7.70	1.179	257
3.680	15.80	20.19	0.01	7.70	1.179	257
3.712	15.78	20.17	0.01	7.70	1.179	257
3.744	15.76	20.15	0.01	7.70	1.179	257
3.776	15.75	20.14	0.02	7.71	1.179	257
3.808	15.76	20.15	0.01	7.70	1.179	257
3.840	15.79	20.18	0.01	7.70	1.179	257
3.872	15.82	20.21	0.01	7.70	1.179	257
3.904	15.84	20.23	0.01	7.70	1.179	257
3.936	15.86	20.25	0.01	7.70	1.179	257
3.968	15.87	20.26	0.01	7.70	1.179	257
4.000	15.87	20.26	0.00	7.70	1.179	257
4.032	15.87	20.27	0.01	7.70	1.179	257
4.064	15.86	20.26	0.01	7.70	1.179	257
4.096	15.86	20.25	0.02	7.71	1.179	257
4.128	15.85	20.24	0.01	7.70	1.179	257
4.160	15.85	20.24	0.01	7.70	1.179	257
4.192	15.85	20.24	0.01	7.70	1.179	257
4.224	15.84	20.23	0.01	7.70	1.179	257
4.256	15.84	20.23	0.02	7.71	1.179	257
4.288	15.83	20.22	0.01	7.70	1.179	257
4.320	15.84	20.23	0.01	7.70	1.179	257
4.352	15.85	20.24	0.01	7.70	1.179	257
4.384	15.86	20.25	0.01	7.70	1.179	257
4.416	15.86	20.25	0.01	7.70	1.179	257
4.448	15.84	20.24	0.01	7.70	1.179	257
4.480	15.82	20.22	0.00	7.70	1.179	257
4.512	15.81	20.20	0.01	7.70	1.179	257
4.544	15.79	20.19	0.01	7.70	1.179	257
4.576	15.79	20.18	0.01	7.70	1.179	257
4.608	15.77	20.16	0.01	7.70	1.179	257
4.640	15.75	20.14	0.01	7.70	1.179	257
4.672	15.73	20.12	0.01	7.70	1.179	257
4.704	15.70	20.09	0.01	7.70	1.179	257
4.736	15.66	20.06	0.01	7.71	1.179	257
4.768	15.64	20.03	0.01	7.71	1.179	257
4.800	15.62	20.02	0.01	7.70	1.179	257
4.832	15.61	20.01	0.01	7.70	1.179	257
4.864	15.62	20.01	0.01	7.70	1.179	257
4.896	15.62	20.02	0.01	7.71	1.179	257
4.928	15.62	20.02	0.01	7.70	1.179	257
4.960	15.62	20.02	0.01	7.70	1.179	257
4.992	15.62	20.02	0.01	7.70	1.179	257
5.024	15.61	20.00	0.01	7.70	1.179	257
5.056	15.60	19.99	0.01	7.71	1.179	257
5.088	15.60	19.99	0.01	7.70	1.179	257
5.120	15.60	19.99	0.01	7.70	1.179	257
5.152	15.60	19.99	0.01	7.70	1.179	257
5.184	15.59	19.98	0.01	7.70	1.179	257
5.216	15.59	19.98	0.01	7.70	1.179	257
5.248	15.60	19.99	0.01	7.70	1.179	257
5.280	15.62	20.01	0.01	7.70	1.179	257
5.312	15.64	20.03	0.00	7.70	1.179	257
5.344	15.64	20.03	0.01	7.70	1.179	257
5.376	15.65	20.04	0.01	7.71	1.179	257
5.408	15.65	20.04	0.01	7.70	1.179	257
5.440	15.66	20.05	0.01	7.70	1.179	257
5.472	15.66	20.05	0.01	7.70	1.179	257
5.504	15.65	20.04	0.01	7.70	1.179	257
5.536	15.64	20.03	0.01	7.70	1.179	257
5.568	15.63	20.02	0.01	7.70	1.179	257
5.600	15.61	20.01	0.01	7.70	1.179	257
5.632	15.60	19.99	0.01	7.70	1.179	257
5.664	15.59	19.98	0.01	7.70	1.179	257
5.696	15.59	19.99	0.01	7.70	1.179	257
5.728	15.61	20.00	0.01	7.71	1.179	257
5.760	15.63	20.02	0.01	7.70	1.179	257
5.792	15.65	20.04	0.01	7.70	1.179	257
5.824	15.68	20.07	0.01	7.70	1.179	257
5.856	15.69	20.09	0.01	7.70	1.179	257
5.888	15.70	20.09	0.01	7.70	1.179	257
5.920	15.71	20.10	0.01	7.70	1.179	257
5.952	15.71	20.10	0.01	7.70	1.179	257
5.984	15.71	20.10	0.01	7.70	1.179	257
6.016	15.71	20.10	0.01	7.71	1.179	257
6.048	15.70	20.09	0.00	7.70	1.179	257
6.080	15.70	20.09	0.01	7.70	1.179	257
6.112	15.69	20.08	0.00	7.70	1.179	257
6.144	15.68	20.07	0.01	7.70	1.179	257
6.176	15.68	20.07	0.01	7.70	1.179	257
6.208	15.69	20.08	0.01	7.70	1.179	257
6.240	15.70	20.09	0.01	7.70	1.179	257
6.272	15.71	20.10	0.00	7.70	1.179	257
6.304	15.73	20.12	0.01	7.70	1.179	257
6.336	15.74	20.14	0.01	7.71	1.179	257
6.368	15.76	20.15	0.01	7.70	1.179	257
6.400	15.77	20.16	0.01	7.70	1.188	259
6.432	15.77	20.17	0.00	7.70	1.188	259
6.464	15.77	20.17	0.00	7.70	1.188	259
6.496	15.77	20.16	0.01	7.70	1.188	259
6.528	15.76	20.16	0.01	7.70	1.188	259
6.560	15.74	20.14	0.01	7.71	1.188	259
6.592	15.72	20.12	0.01	7.70	1.188	259
6.624	15.71	20.11	0.01	7.70	1.188	259
6.656	15.71	20.10	0.01	7.71	1.188	259
6.688	15.72	20.11	0.01	7.70	1.188	259
6.720	15.72	20.11	0.01	7.70	1.188	259
6.752	15.72	20.12	0.01	7.70	1.188	259
6.784	15.74	20.13	0.01	7.70	1.188	259
6.816	15.75	20.14	0.01	7.70	1.188	259
6.848	15.76	20.15	0.01	7.71	1.188	259
6.880	15.77	20.16	0.01	7.70	1.188	259
6.912	15.77	20.16	0.01	7.70	1.188	259
6.944	15.78	20.17	0.01	7.70	1.188	259
6.976	15.78	20.18	0.01	7.71	1.188	259
7.008	15.79	20.18	0.01	7.71	1.188	259
7.040	15.77	20.17	0.01	7.70	1.188	259
7.072	15.76	20.15	0.01	7.70	1.188	259
7.104	15.75	20.14	0.01	7.70	1.188	259
7.136	15.76	20.15	0.01	7.70	1.188	259
7.168	15.77	20.17	0.01	7.70	1.188	259
7.200	15.79	20.19	0.01	7.70	1.188	259
7.232	15.81	20.21	0.00	7.70	1.188	259
7.264	15.82	20.22	0.01	7.70	1.188	259
7.296	15.83	20.22	0.02	7.71	1.188	259
7.328	15.83	20.23	0.01	7.70	1.188	259
7.360	15.83	20.22	0.01	7.70	1.188	259
7.392	15.82	20.21	0.01	7.70	1.188	259
7.424	15.81	20.20	0.01	7.70	1.188	259
7.456	15.81	20.20	0.01	7.70	1.188	259
7.488	15.80	20.19	0.01	7.70	1.188	259
7.520	15.77	20.16	0.01	7.70	1.188	259
7.552	15.74	20.13	0.01	7.70	1.188	259
7.584	15.73	20.12	0.01	7.70	1.188	259
7.616	15.73	20.12	0.01	7.71	1.188	259
7.648	15.73	20.12	0.01	7.70	1.188	259
7.680	15.73	20.12	0.01	7.70	1.188	259
7.712	15.74	20.13	0.00	7.70	1.188	259
7.744	15.75	20.14	0.01	7.70	1.188	259
7.776	15.76	20.15	0.01	7.71	1.193	260
7.808	15.77	20.16	0.01	7.70	1.193	260
7.840	15.77	20.17	0.01	7.70	1.193	260
7.872	15.77	20.17	0.01	7.70	1.193	260
7.904	15.77	20.17	0.01	7.70	1.193	260
7.936	15.76	20.16	0.01	7.70	1.193	260
7.968	15.74	20.14	0.01	7.70	1.193	260
8.000	15.72	20.11	0.01	7.70	1.193	260
8.032	15.69	20.09	0.01	7.70	1.193	260
8.064	15.68	20.07	0.01	7.70	1.193	260
8.096	15.68	20.07	0.01	7.70	1.193	260
8.128	15.68	20.08	0.01	7.70	1.193	260
8.160	15.70	20.09	0.01	7.70	1.193	260
8.192	15.72	20.11	0.00	7.70	1.193	260
8.224	15.74	20.13	0.01	7.70	1.193	260
8.256	15.75	20.14	0.01	7.71	1.188	259
8.288	15.76	20.15	0.01	7.70	1.188	259
8.320	15.76	20.15	0.01	7.70	1.188	259
8.352	15.75	20.14	0.01	7.70	1.188	259
8.384	15.74	20.13	0.01	7.70	1.188	259
8.416	15.73	20.12	0.01	7.70	1.188	259
8.448	15.71	20.10	0.01	7.70	1.188	259
8.480	15.69	20.08	0.01	7.70	1.188	259
8.512	15.68	20.07	0.01	7.70	1.188	259
8.544	15.67	20.07	0.01	7.70	1.188	259
8.576	15.68	20.07	0.01	7.70	1.188	259
8.608	15.68	20.08	0.01	7.70	1.188	259
8.640	15.71	20.10	0.01	7.70	1.188	259
8.672	15.73	20.12	0.01	7.70	1.188	259
8.704	15.74	20.13	0.01	7.71	1.188	259
8.736	15.75	20.14	0.01	7.71	1.188	259
8.768	15.74	20.13	0.01	7.71	1.188	259
8.800	15.72	20.12	0.01	7.70	1.188	259
8.832	15.70	20.10	0.01	7.70	1.188	259
8.864	15.68	20.07	0.01	7.70	1.188	259
8.896	15.65	20.04	0.01	7.70	1.188	259
8.928	15.62	20.01	0.01	7.70	1.188	259
8.960	15.60	19.99	0.01	7.70	1.188	259
8.992	15.59	19.98	0.01	7.70	1.188	259
9.024	15.59	19.98	0.01	7.70	1.188	259
9.056	15.60	19.99	0.02	7.71	1.188	259
9.088	15.62	20.01	0.01	7.70	1.188	259
9.120	15.65	20.04	0.01	7.70	1.188	259
9.152	15.67	20.06	0.01	7.70	1.188	259
9.184	15.68	20.08	0.01	7.70	1.188	259
9.216	15.70	20.09	0.01	7.71	1.188	259
9.248	15.71	20.10	0.01	7.70	1.188	259
9.280	15.72	20.11	0.01	7.70	1.188	259
9.312	15.72	20.12	0.01	7.70	1.188	259
9.344	15.73	20.12	0.01	7.70	1.188	259
9.376	15.73	20.12	0.02	7.71	1.188	259
9.408	15.72	20.12	0.01	7.70	1.188	259
9.440	15.72	20.11	0.01	7.70	1.188	259
9.472	15.72	20.12	0.01	7.70	1.188	259
9.504	15.72	20.12	0.01	7.70	1.188	259
9.536	15.73	20.12	0.01	7.70	1.188	259
9.568	15.74	20.13	0.01	7.70	1.188	259
9.600	15.75	20.14	0.01	7.70	1.188	259
9.632	15.75	20.14	0.01	7.70	1.188	259
9.664	15.74	20.13	0.01	7.70	1.188	259
9.696	15.73	20.12	0.02	7.71	1.188	259
9.728	15.72	20.11	0.01	7.70	1.188	259
9.760	15.71	20.10	0.01	7.70	1.188	259
9.792	15.70	20.09	0.01	7.70	1.188	259
9.824	15.69	20.09	0.01	7.71	1.188	259
9.856	15.68	20.07	0.01	7.70	1.188	259
9.888	15.67	20.06	0.00	7.70	1.188	259
9.920	15.66	20.05	0.01	7.70	1.188	259
9.952	15.67	20.06	0.00	7.70	1.188	259
9.984	15.69	20.08	0.01	7.70	1.188	259
10.016	15.72	20.11	0.01	7.70	1.188	259
10.048	15.74	20.13	0.01	7.71	1.188	259
10.080	15.75	20.14	0.01	7.70	1.188	259
10.112	15.74	20.14	0.00	7.70	1.188	259
10.144	15.75	20.14	0.01	7.70	1.188	259
10.176	15.75	20.15	0.01	7.71	1.188	259
10.208	15.76	20.15	0.01	7.70	1.188	259
10.240	15.77	20.17	0.01	7.70	1.188	259
10.272	15.78	20.18	0.01	7.70	1.188	259
10.304	15.79	20.18	0.01	7.70	1.188	259
10.336	15.79	20.18	0.01	7.70	1.188	259
10.368	15.79	20.18	0.01	7.70	1.188	259
10.400	15.79	20.18	0.01	7.70	1.188	259
10.432	15.79	20.18	0.01	7.70	1.188	259
10.464	15.79	20.18	0.01	7.70	1.188	259
10.496	15.79	20.18	0.01	7.71	1.188	259
10.528	15.80	20.19	0.01	7.70	1.188	259
10.560	15.81	20.20	0.01	7.70	1.188	259
10.592	15.82	20.21	0.00	7.70	1.193	260
10.624	15.82	20.21	0.01	7.71	1.193	260
10.656	15.81	20.20	0.01	7.71	1.193	260
10.688	15.80	20.19	0.01	7.70	1.193	260
10.720	15.78	20.18	0.01	7.71	1.193	260
10.752	15.78	20.18	0.01	7.70	1.193	260
10.784	15.79	20.18	0.01	7.70	1.193	260
10.816	15.78	20.17	0.01	7.70	1.193	260
10.848	15.77	20.16	0.01	7.70	1.193	260
10.880	15.75	20.15	0.01	7.70	1.193	260
10.912	15.75	20.14	0.01	7.70	1.193	260
10.944	15.75	20.14	0.01	7.70	1.193	260
10.976	15.75	20.14	0.02	7.71	1.193	260
11.008	15.76	20.15	0.01	7.70	1.193	260
11.040	15.77	20.16	0.00	7.70	1.193	260
11.072	15.80	20.19	0.01	7.70	1.188	259
11.104	15.82	20.22	0.01	7.70	1.188	259
11.136	15.85	20.24	0.01	7.70	1.188	259
11.168	15.86	20.25	0.01	7.70	1.188	259
11.200	15.86	20.26	0.01	7.70	1.188	259
11.232	15.86	20.26	0.01	7.70	1.188	259
11.264	15.86	20.26	0.01	7.70	1.188	259
11.296	15.85	20.24	0.01	7.71	1.188	259
11.328	15.85	20.24	0.01	7.71	1.188	259
11.360	15.85	20.24	0.01	7.70	1.188	259
11.392	15.85	20.25	0.01	7.70	1.188	259
11.424	15.86	20.25	0.01	7.70	1.188	259
11.456	15.86	20.26	0.01	7.71	1.188	259
11.488	15.87	20.26	0.00	7.70	1.188	259
11.520	15.87	20.27	0.00	7.70	1.193	260
11.552	15.88	20.28	0.01	7.70	1.193	260
11.584	15.89	20.29	0.01	7.70	1.193	260
11.616	15.90	20.29	0.01	7.70	1.193	260
11.648	15.90	20.29	0.01	7.70	1.193	260
11.680	15.90	20.29	0.01	7.70	1.193	260
11.712	15.90	20.29	0.01	7.70	1.193	260
11.744	15.90	20.29	0.02	7.71	1.193	260
11.776	15.89	20.28	0.01	7.70	1.193	260
11.808	15.89	20.28	0.01	7.70	1.193	260
11.840	15.90	20.29	0.01	7.70	1.193	260
11.872	15.90	20.29	0.01	7.70	1.193	260
11.904	15.90	20.30	0.01	7.70	1.193	260
11.936	15.91	20.31	0.01	7.70	1.193	260
11.968	15.92	20.32	0.01	7.70	1.193	260
12.000	15.94	20.33	0.01	7.70	1.188	259
12.032	15.95	20.34	0.01	7.71	1.188	259
12.064	15.96	20.36	0.01	7.71	1.188	259
12.096	15.97	20.36	0.01	7.71	1.188	259
12.128	15.97	20.37	0.00	7.70	1.188	259
12.160	15.96	20.36	0.01	7.70	1.188	259
12.192	15.96	20.35	0.01	7.70	1.188	259
12.224	15.93	20.32	0.01	7.70	1.188	259
12.256	15.90	20.29	0.01	7.70	1.188	259
12.288	15.87	20.26	0.01	7.70	1.188	259
12.320	15.86	20.25	0.01	7.71	1.188	259
12.352	15.86	20.25	0.01	7.70	1.188	259
12.384	15.86	20.25	0.01	7.70	1.188	259
12.416	15.85	20.25	0.01	7.70	1.188	259
12.448	15.85	20.24	0.01	7.70	1.188	259
12.480	15.85	20.24	0.01	7.70	1.183	258
12.512	15.85	20.24	0.01	7.71	1.183	258
12.544	15.84	20.23	0.02	7.71	1.183	258
12.576	15.84	20.23	0.01	7.70	1.183	258
12.608	15.83	20.23	0.01	7.70	1.183	258
12.640	15.83	20.23	0.01	7.70	1.183	258
12.672	15.83	20.22	0.01	7.70	1.183	258
12.704	15.81	20.20	0.02	7.71	1.183	258
12.736	15.79	20.19	0.01	7.70	1.183	258
12.768	15.78	20.17	0.01	7.70	1.183	258
12.800	15.77	20.16	0.01	7.70	1.183	258
12.832	15.78	20.17	0.01	7.71	1.183	258
12.864	15.79	20.18	0.01	7.70	1.183	258
12.896	15.80	20.20	0.01	7.70	1.183	258
12.928	15.81	20.21	0.02	7.71	1.183	258
12.960	15.82	20.21	0.01	7.70	1.183	258
12.992	15.81	20.20	0.01	7.70	1.183	258
13.024	15.80	20.19	0.01	7.70	1.183	258
13.056	15.79	20.18	0.01	7.70	1.183	258
13.088	15.79	20.18	0.01	7.70	1.183	258
13.120	15.78	20.17	0.01	7.70	1.183	258
13.152	15.77	20.16	0.01	7.70	1.183	258
13.184	15.74	20.14	0.01	7.70	1.183	258
13.216	15.73	20.12	0.01	7.70	1.183	258
13.248	15.73	20.13	0.00	7.70	1.183	258
13.280	15.75	20.14	0.01	7.70	1.183	258
13.312	15.76	20.15	0.01	7.70	1.183	258
13.344	15.78	20.17	0.01	7.70	1.183	258
13.376	15.80	20.19	0.01	7.70	1.183	258
13.408	15.82	20.21	0.01	7.70	1.179	257
13.440	15.84	20.23	0.01	7.70	1.179	257
13.472	15.86	20.25	0.01	7.70	1.179	257
13.504	15.86	20.26	0.01	7.70	1.179	257
13.536	15.87	20.26	0.01	7.70	1.179	257
13.568	15.88	20.27	0.01	7.70	1.179	257
13.600	15.89	20.28	0.01	7.70	1.179	257
13.632	15.89	20.28	0.01	7.71	1.179	257
13.664	15.89	20.28	0.01	7.70	1.179	257
13.696	15.87	20.27	0.01	7.70	1.179	257
13.728	15.87	20.27	0.01	7.70	1.179	257
13.760	15.87	20.27	0.01	7.70	1.179	257
13.792	15.89	20.28	0.02	7.71	1.179	257
13.824	15.91	20.30	0.01	7.70	1.179	257
13.856	15.93	20.32	0.01	7.70	1.179	257
13.888	15.95	20.34	0.01	7.70	1.183	258
13.920	15.96	20.35	0.01	7.70	1.183	258
13.952	15.96	20.35	0.02	7.71	1.183	258
13.984	15.95	20.34	0.01	7.70	1.183	258
14.016	15.92	20.31	0.01	7.70	1.183	258
14.048	15.89	20.28	0.01	7.71	1.183	258
14.080	15.86	20.25	0.01	7.71	1.183	258
14.112	15.83	20.22	0.01	7.71	1.183	258
14.144	15.81	20.21	0.01	7.70	1.183	258
14.176	15.81	20.21	0.01	7.70	1.183	258
14.208	15.82	20.22	0.01	7.71	1.183	258
14.240	15.85	20.24	0.02	7.71	1.183	258
14.272	15.87	20.26	0.01	7.71	1.183	258
14.304	15.89	20.28	0.01	7.70	1.183	258
14.336	15.92	20.31	0.01	7.70	1.183	258
14.368	15.94	20.33	0.01	7.71	1.183	258
14.400	15.95	20.35	0.01	7.70	1.183	258
14.432	15.95	20.35	0.01	7.71	1.183	258
14.464	15.95	20.34	0.01	7.70	1.183	258
14.496	15.94	20.34	0.01	7.70	1.183	258
14.528	15.94	20.33	0.01	7.70	1.183	258
14.560	15.92	20.32	0.01	7.71	1.183	258
14.592	15.91	20.30	0.01	7.71	1.183	258
14.624	15.89	20.28	0.01	7.71	1.183	258
14.656	15.89	20.28	0.01	7.70	1.183	258
14.688	15.90	20.29	0.01	7.70	1.183	258
14.720	15.91	20.30	0.01	7.70	1.183	258
14.752	15.92	20.31	0.01	7.70	1.183	258
14.784	15.93	20.32	0.01	7.70	1.183	258
14.816	15.94	20.33	0.01	7.70	1.183	258
14.848	15.94	20.34	0.01	7.71	1.183	258
14.880	15.95	20.34	0.01	7.70	1.183	258
14.912	15.95	20.34	0.01	7.71	1.183	258
14.944	15.94	20.33	0.01	7.70	1.183	258
14.976	15.94	20.33	0.01	7.70	1.183	258
15.008	15.95	20.34	0.01	7.70	1.183	258
15.040	15.94	20.33	0.02	7.71	1.183	258
15.072	15.92	20.31	0.01	7.71	1.183	258
15.104	15.92	20.31	0.01	7.70	1.183	258
15.136	15.92	20.32	0.01	7.70	1.183	258
15.168	15.94	20.33	0.01	7.71	1.183	258
15.200	15.95	20.34	0.02	7.71	1.183	258
15.232	15.96	20.36	0.02	7.71	1.183	258
15.264	15.98	20.38	0.01	7.70	1.183	258
15.296	16.01	20.40	0.01	7.70	1.183	258
15.328	16.01	20.41	0.01	7.70	1.183	258
15.360	16.03	20.42	0.01	7.71	1.183	258
15.392	16.02	20.41	0.01	7.71	1.183	258
15.424	16.01	20.40	0.01	7.70	1.183	258
15.456	15.99	20.39	0.01	7.70	1.183	258
15.488	15.98	20.37	0.01	7.70	1.183	258
15.520	15.95	20.34	0.01	7.71	1.183	258
15.552	15.92	20.31	0.01	7.70	1.183	258
15.584	15.90	20.29	0.01	7.71	1.183	258
15.616	15.89	20.28	0.01	7.70	1.183	258
15.648	15.89	20.28	0.01	7.71	1.183	258
15.680	15.89	20.28	0.01	7.71	1.183	258
15.712	15.89	20.29	0.01	7.70	1.183	258
15.744	15.90	20.29	0.01	7.70	1.183	258
15.776	15.91	20.31	0.01	7.70	1.183	258
15.808	15.91	20.31	0.01	7.70	1.183	258
15.840	15.91	20.30	0.01	7.71	1.183	258
15.872	15.91	20.30	0.01	7.70	1.183	258
15.904	15.91	20.30	0.01	7.70	1.183	258
15.936	15.90	20.29	0.01	7.70	1.183	258
15.968	15.89	20.28	0.01	7.70	1.183	258
16.000	15.86	20.25	0.02	7.71	1.183	258
16.032	15.85	20.24	0.01	7.70	1.183	258
16.064	15.84	20.23	0.01	7.70	1.183	258
16.096	15.84	20.23	0.01	7.71	1.183	258
16.128	15.84	20.23	0.01	7.71	1.183	258
16.160	15.84	20.23	0.02	7.71	1.183	258
16.192	15.85	20.24	0.01	7.70	1.183	258
16.224	15.85	20.25	0.01	7.70	1.183	258
16.256	15.87	20.27	0.02	7.71	1.183	258
16.288	15.89	20.29	0.01	7.70	1.183	258
16.320	15.91	20.30	0.01	7.70	1.183	258
16.352	15.92	20.31	0.01	7.70	1.183	258
16.384	15.92	20.32	0.01	7.70	1.183	258
16.416	15.92	20.31	0.01	7.70	1.183	258
16.448	15.90	20.29	0.01	7.71	1.183	258
16.480	15.87	20.27	0.01	7.70	1.183	258
16.512	15.85	20.24	0.01	7.70	1.183	258
16.544	15.84	20.23	0.01	7.70	1.183	258
16.576	15.84	20.23	0.02	7.71	1.183	258
16.608	15.84	20.23	0.01	7.70	1.183	258
16.640	15.85	20.24	0.01	7.70	1.183	258
16.672	15.86	20.25	0.01	7.70	1.179	257
16.704	15.87	20.27	0.01	7.71	1.179	257
16.736	15.90	20.29	0.01	7.70	1.179	257
16.768	15.92	20.31	0.01	7.70	1.179	257
16.800	15.94	20.33	0.01	7.70	1.179	257
16.832	15.94	20.33	0.01	7.70	1.179	257
16.864	15.93	20.33	0.01	7.70	1.179	257
16.896	15.92	20.32	0.01	7.70	1.179	257
16.928	15.90	20.29	0.01	7.70	1.179	257
16.960	15.87	20.27	0.01	7.70	1.179	257
16.992	15.86	20.25	0.01	7.70	1.179	257
17.024	15.86	20.25	0.01	7.70	1.179	257
17.056	15.87	20.26	0.01	7.70	1.179	257
17.088	15.89	20.28	0.01	7.71	1.179	257
17.120	15.91	20.30	0.01	7.70	1.179	257
17.152	15.93	20.32	0.01	7.71	1.183	258
17.184	15.95	20.34	0.01	7.71	1.183	258
17.216	15.96	20.35	0.01	7.71	1.183	258
17.248	15.95	20.34	0.02	7.71	1.183	258
17.280	15.95	20.34	0.01	7.71	1.183	258
17.312	15.95	20.34	0.01	7.70	1.183	258
17.344	15.94	20.33	0.01	7.70	1.183	258
17.376	15.93	20.32	0.01	7.70	1.183	258
17.408	15.91	20.30	0.02	7.71	1.183	258
17.440	15.89	20.28	0.01	7.70	1.183	258
17.472	15.88	20.27	0.01	7.70	1.183	258
17.504	15.87	20.27	0.01	7.70	1.183	258
17.536	15.87	20.27	0.01	7.71	1.183	258
17.568	15.87	20.27	0.01	7.71	1.183	258
17.600	15.88	20.27	0.01	7.70	1.183	258
17.632	15.88	20.27	0.01	7.70	1.183	258
17.664	15.89	20.28	0.01	7.71	1.183	258
17.696	15.90	20.29	0.01	7.71	1.183	258
17.728	15.92	20.31	0.01	7.71	1.183	258
17.760	15.93	20.32	0.01	7.70	1.183	258
17.792	15.93	20.32	0.01	7.70	1.183	258
17.824	15.92	20.32	0.01	7.70	1.183	258
17.856	15.91	20.30	0.01	7.70	1.183	258
17.888	15.89	20.28	0.01	7.70	1.183	258
17.920	15.88	20.27	0.01	7.71	1.183	258
17.952	15.89	20.28	0.01	7.70	1.183	258
17.984	15.90	20.29	0.01	7.70	1.183	258
18.016	15.91	20.30	0.01	7.71	1.183	258
18.048	15.93	20.32	0.01	7.70	1.183	258
18.080	15.94	20.34	0.01	7.70	1.183	258
18.112	15.97	20.36	0.01	7.70	1.183	258
18.144	15.99	20.38	0.01	7.70	1.183	258
18.176	15.99	20.38	0.01	7.70	1.183	258
18.208	15.99	20.38	0.01	7.70	1.183	258
18.240	15.99	20.38	0.01	7.70	1.183	258
18.272	15.99	20.38	0.01	7.71	1.183	258
18.304	15.99	20.38	0.01	7.70	1.183	258
18.336	15.98	20.37	0.01	7.70	1.183	258
18.368	15.97	20.36	0.01	7.70	1.183	258
18.400	15.96	20.35	0.01	7.70	1.183	258
18.432	15.95	20.34	0.01	7.70	1.183	258
18.464	15.95	20.35	0.01	7.71	1.183	258
18.496	15.96	20.35	0.01	7.70	1.183	258
18.528	15.97	20.36	0.02	7.71	1.183	258
18.560	15.98	20.37	0.01	7.71	1.183	258
18.592	15.98	20.38	0.01	7.70	1.183	258
18.624	15.98	20.37	0.01	7.71	1.183	258
18.656	15.96	20.36	0.01	7.70	1.183	258
18.688	15.94	20.33	0.01	7.70	1.183	258
18.720	15.91	20.31	0.01	7.70	1.183	258
18.752	15.89	20.28	0.01	7.70	1.183	258
18.784	15.86	20.25	0.01	7.70	1.183	258
18.816	15.84	20.23	0.01	7.71	1.183	258
18.848	15.81	20.21	0.01	7.70	1.183	258
18.880	15.81	20.20	0.01	7.70	1.183	258
18.912	15.81	20.20	0.01	7.71	1.183	258
18.944	15.82	20.22	0.02	7.71	1.183	258
18.976	15.85	20.24	0.01	7.71	1.183	258
19.008	15.88	20.27	0.01	7.71	1.183	258
19.040	15.90	20.30	0.01	7.70	1.183	258
19.072	15.92	20.32	0.01	7.70	1.183	258
19.104	15.94	20.33	0.01	7.71	1.183	258
19.136	15.94	20.33	0.01	7.71	1.183	258
19.168	15.92	20.32	0.01	7.70	1.183	258
19.200	15.91	20.30	0.01	7.70	1.183	258
19.232	15.89	20.28	0.01	7.71	1.183	258
19.264	15.86	20.25	0.01	7.70	1.183	258
19.296	15.83	20.22	0.02	7.71	1.183	258
19.328	15.80	20.19	0.01	7.70	1.183	258
19.360	15.79	20.18	0.01	7.70	1.183	258
19.392	15.79	20.18	0.01	7.70	1.183	258
19.424	15.81	20.20	0.01	7.71	1.183	258
19.456	15.83	20.23	0.01	7.71	1.183	258
19.488	15.85	20.25	0.01	7.70	1.179	257
19.520	15.87	20.27	0.01	7.70	1.179	257
19.552	15.88	20.27	0.01	7.70	1.179	257
19.584	15.89	20.28	0.02	7.71	1.179	257
19.616	15.89	20.28	0.01	7.70	1.179	257
19.648	15.90	20.29	0.01	7.71	1.179	257
19.680	15.91	20.30	0.01	7.70	1.179	257
19.712	15.91	20.30	0.01	7.70	1.179	257
19.744	15.89	20.28	0.01	7.71	1.179	257
19.776	15.86	20.25	0.01	7.71	1.179	257
19.808	15.85	20.24	0.01	7.70	1.179	257
19.840	15.84	20.23	0.01	7.70	1.179	257
19.872	15.83	20.22	0.01	7.71	1.179	257
19.904	15.82	20.22	0.02	7.71	1.179	257
19.936	15.83	20.22	0.01	7.70	1.179	257
19.968	15.84	20.23	0.01	7.70	1.188	259
20.000	15.85	20.24	0.01	7.70	1.188	259
20.032	15.85	20.24	0.01	7.70	1.188	259
20.064	15.85	20.24	0.02	7.71	1.188	259
20.096	15.84	20.23	0.01	7.70	1.188	259
20.128	15.82	20.22	0.01	7.70	1.188	259
20.160	15.82	20.21	0.01	7.70	1.188	259
20.192	15.81	20.20	0.01	7.70	1.188	259
20.224	15.80	20.19	0.01	7.70	1.188	259
20.256	15.78	20.18	0.01	7.70	1.188	259
20.288	15.78	20.17	0.01	7.70	1.188	259
20.320	15.78	20.17	0.01	7.70	1.188	259
20.352	15.78	20.18	0.01	7.70	1.188	259
20.384	15.79	20.19	0.01	7.71	1.188	259
20.416	15.82	20.21	0.01	7.71	1.183	258
20.448	15.85	20.24	0.01	7.70	1.183	258
20.480	15.89	20.28	0.01	7.70	1.183	258
20.512	15.91	20.31	0.01	7.70	1.183	258
20.544	15.94	20.33	0.01	7.71	1.183	258
20.576	15.95	20.34	0.01	7.70	1.183	258
20.608	15.96	20.35	0.01	7.70	1.183	258
20.640	15.96	20.35	0.01	7.70	1.183	258
20.672	15.94	20.33	0.01	7.71	1.183	258
20.704	15.91	20.30	0.01	7.71	1.183	258
20.736	15.90	20.29	0.01	7.70	1.183	258
20.768	15.89	20.28	0.01	7.70	1.183	258
20.800	15.89	20.28	0.01	7.70	1.183	258
20.832	15.89	20.28	0.01	7.71	1.183	258
20.864	15.88	20.28	0.02	7.71	1.183	258
20.896	15.89	20.28	0.01	7.70	1.183	258
20.928	15.90	20.29	0.01	7.70	1.183	258
20.960	15.90	20.30	0.01	7.70	1.183	258
20.992	15.91	20.30	0.01	7.70	1.183	258
21.024	15.89	20.29	0.02	7.71	1.183	258
21.056	15.88	20.27	0.01	7.70	1.183	258
21.088	15.87	20.26	0.01	7.70	1.183	258
21.120	15.86	20.25	0.01	7.70	1.183	258
21.152	15.84	20.23	0.01	7.71	1.183	258
21.184	15.82	20.22	0.01	7.70	1.183	258
21.216	15.81	20.21	0.00	7.70	1.183	258
21.248	15.82	20.21	0.01	7.70	1.183	258
21.280	15.82	20.22	0.01	7.70	1.183	258
21.312	15.84	20.23	0.01	7.71	1.183	258
21.344	15.85	20.24	0.01	7.70	1.183	258
21.376	15.87	20.26	0.02	7.71	1.188	259
21.408	15.89	20.28	0.00	7.70	1.188	259
21.440	15.90	20.30	0.01	7.70	1.188	259
21.472	15.91	20.30	0.01	7.70	1.188	259
21.504	15.92	20.32	0.01	7.70	1.188	259
21.536	15.94	20.33	0.01	7.70	1.188	259
21.568	15.95	20.34	0.01	7.70	1.188	259
21.600	15.95	20.34	0.01	7.70	1.188	259
21.632	15.92	20.32	0.01	7.70	1.188	259
21.664	15.90	20.29	0.01	7.70	1.188	259
21.696	15.87	20.27	0.01	7.70	1.188	259
21.728	15.87	20.26	0.01	7.70	1.188	259
21.760	15.88	20.27	0.01	7.70	1.188	259
21.792	15.89	20.29	0.01	7.71	1.188	259
21.824	15.91	20.30	0.01	7.70	1.183	258
21.856	15.93	20.32	0.01	7.70	1.183	258
21.888	15.95	20.34	0.01	7.70	1.183	258
21.920	15.96	20.35	0.01	7.70	1.183	258
21.952	15.96	20.35	0.01	7.71	1.183	258
21.984	15.95	20.34	0.02	7.71	1.183	258
22.016	15.93	20.32	0.01	7.70	1.183	258
22.048	15.91	20.31	0.00	7.70	1.183	258
22.080	15.89	20.28	0.01	7.71	1.183	258
22.112	15.87	20.26	0.01	7.70	1.183	258
22.144	15.84	20.23	0.01	7.70	1.183	258
22.176	15.83	20.22	0.01	7.70	1.183	258
22.208	15.82	20.22	0.00	7.70	1.183	258
22.240	15.83	20.22	0.01	7.70	1.183	258
22.272	15.83	20.23	0.02	7.71	1.183	258
22.304	15.84	20.23	0.01	7.70	1.183	258
22.336	15.85	20.24	0.01	7.70	1.183	258
22.368	15.85	20.25	0.01	7.70	1.183	258
22.400	15.86	20.26	0.01	7.70	1.183	258
22.432	15.86	20.25	0.02	7.71	1.183	258
22.464	15.86	20.25	0.01	7.70	1.183	258
22.496	15.87	20.26	0.01	7.70	1.183	258
22.528	15.87	20.27	0.01	7.70	1.183	258
22.560	15.87	20.26	0.01	7.70	1.183	258
22.592	15.85	20.25	0.01	7.71	1.183	258
22.624	15.85	20.24	0.01	7.70	1.183	258
22.656	15.85	20.24	0.01	7.70	1.183	258
22.688	15.86	20.26	0.01	7.70	1.183	258
22.720	15.89	20.28	0.01	7.70	1.183	258
22.752	15.92	20.31	0.01	7.70	1.183	258
22.784	15.95	20.34	0.01	7.70	1.183	258
22.816	15.97	20.37	0.01	7.70	1.183	258
22.848	15.99	20.39	0.01	7.71	1.183	258
22.880	16.00	20.40	0.01	7.70	1.183	258
22.912	16.00	20.39	0.01	7.71	1.183	258
22.944	16.00	20.39	0.01	7.70	1.183	258
22.976	15.99	20.38	0.01	7.70	1.183	258
23.008	15.98	20.37	0.01	7.70	1.183	258
23.040	15.96	20.36	0.01	7.70	1.183	258
23.072	15.96	20.35	0.01	7.70	1.183	258
23.104	15.96	20.35	0.01	7.70	1.183	258
23.136	15.97	20.37	0.01	7.70	1.183	258
23.168	15.99	20.39	0.01	7.70	1.183	258
23.200	16.02	20.42	0.01	7.70	1.183	258
23.232	16.05	20.44	0.01	7.71	1.183	258
23.264	16.07	20.46	0.01	7.70	1.183	258
23.296	16.08	20.47	0.02	7.71	1.183	258
23.328	16.08	20.47	0.01	7.70	1.183	258
23.360	16.08	20.47	0.01	7.70	1.183	258
23.392	16.07	20.46	0.01	7.70	1.183	258
23.424	16.05	20.45	0.01	7.70	1.183	258
23.456	16.05	20.44	0.01	7.70	1.183	258
23.488	16.03	20.42	0.01	7.71	1.183	258
23.520	16.01	20.40	0.01	7.71	1.183	258
23.552	16.00	20.39	0.01	7.70	1.183	258
23.584	16.00	20.39	0.01	7.70	1.183	258
23.616	16.01	20.40	0.01	7.70	1.183	258
23.648	16.04	20.43	0.01	7.70	1.183	258
23.680	16.07	20.47	0.01	7.70	1.183	258
23.712	16.10	20.49	0.01	7.70	1.188	259
23.744	16.12	20.51	0.01	7.70	1.188	259
23.776	16.13	20.53	0.00	7.70	1.188	259
23.808	16.14	20.53	0.01	7.70	1.188	259
23.840	16.14	20.53	0.02	7.71	1.188	259
23.872	16.14	20.53	0.01	7.70	1.188	259
23.904	16.13	20.52	0.01	7.70	1.188	259
23.936	16.11	20.50	0.01	7.70	1.188	259
23.968	16.09	20.48	0.00	7.70	1.188	259
24.000	16.06	20.45	0.01	7.70	1.188	259
24.032	16.05	20.44	0.01	7.70	1.188	259
24.064	16.04	20.43	0.00	7.70	1.188	259
24.096	16.05	20.44	0.01	7.70	1.188	259
24.128	16.06	20.45	0.01	7.70	1.188	259
24.160	16.06	20.45	0.01	7.70	1.188	259
24.192	16.07	20.46	0.01	7.70	1.188	259
24.224	16.07	20.47	0.01	7.71	1.188	259
24.256	16.09	20.48	0.01	7.70	1.188	259
24.288	16.10	20.49	0.01	7.71	1.188	259
24.320	16.09	20.48	0.01	7.70	1.188	259
24.352	16.09	20.48	0.01	7.71	1.188	259
24.384	16.08	20.47	0.01	7.70	1.188	259
24.416	16.07	20.46	0.01	7.70	1.188	259
24.448	16.05	20.45	0.01	7.70	1.188	259
24.480	16.03	20.42	0.01	7.71	1.188	259
24.512	16.02	20.42	0.01	7.70	1.188	259
24.544	16.02	20.42	0.01	7.70	1.188	259
24.576	16.03	20.43	0.01	7.70	1.188	259
24.608	16.05	20.44	0.01	7.70	1.188	259
24.640	16.06	20.46	0.01	7.71	1.188	259
24.672	16.08	20.47	0.01	7.70	1.188	259
24.704	16.09	20.48	0.01	7.70	1.188	259
24.736	16.09	20.48	0.01	7.70	1.188	259
24.768	16.09	20.48	0.01	7.70	1.188	259
24.800	16.07	20.47	0.01	7.71	1.188	259
24.832	16.06	20.45	0.01	7.70	1.188	259
24.864	16.03	20.42	0.01	7.70	1.188	259
24.896	16.01	20.40	0.01	7.70	1.188	259
24.928	15.98	20.37	0.01	7.70	1.188	259
24.960	15.97	20.37	0.01	7.70	1.188	259
24.992	15.98	20.37	0.01	7.70	1.188	259
25.024	16.00	20.39	0.01	7.71	1.188	259
25.056	16.02	20.41	0.01	7.70	1.188	259
25.088	16.04	20.43	0.01	7.70	1.188	259
25.120	16.07	20.46	0.01	7.71	1.193	260
25.152	16.10	20.50	0.01	7.70	1.193	260
25.184	16.13	20.52	0.00	7.70	1.193	260
25.216	16.15	20.54	0.01	7.70	1.193	260
25.248	16.15	20.54	0.01	7.70	1.193	260
25.280	16.14	20.54	0.01	7.71	1.193	260
25.312	16.14	20.53	0.00	7.70	1.193	260
25.344	16.14	20.54	0.00	7.70	1.193	260
25.376	16.12	20.52	0.01	7.70	1.193	260
25.408	16.10	20.49	0.01	7.70	1.193	260
25.440	16.09	20.48	0.01	7.70	1.193	260
25.472	16.07	20.47	0.01	7.70	1.193	260
25.504	16.07	20.46	0.01	7.70	1.193	260
25.536	16.07	20.47	0.01	7.70	1.193	260
25.568	16.09	20.48	0.01	7.70	1.188	259
25.600	16.10	20.49	0.01	7.70	1.188	259
25.632	16.11	20.50	0.01	7.70	1.188	259
25.664	16.12	20.52	0.01	7.70	1.188	259
25.696	16.13	20.52	0.01	7.70	1.188	259
25.728	16.13	20.52	0.01	7.71	1.188	259
25.760	16.12	20.51	0.01	7.70	1.188	259
25.792	16.11	20.50	0.01	7.70	1.188	259
25.824	16.09	20.49	0.01	7.70	1.188	259
25.856	16.08	20.47	0.01	7.70	1.188	259
25.888	16.08	20.47	0.01	7.70	1.188	259
25.920	16.09	20.48	0.01	7.70	1.188	259
25.952	16.11	20.50	0.01	7.70	1.188	259
25.984	16.13	20.52	0.01	7.70	1.188	259
26.016	16.15	20.54	0.01	7.70	1.188	259
26.048	16.18	20.57	0.01	7.70	1.193	260
26.080	16.18	20.58	0.01	7.70	1.193	260
26.112	16.19	20.58	0.00	7.70	1.193	260
26.144	16.19	20.58	0.01	7.70	1.193	260
26.176	16.18	20.58	0.01	7.70	1.193	260
26.208	16.17	20.57	0.01	7.70	1.193	260
26.240	16.16	20.56	0.01	7.70	1.193	260
26.272	16.15	20.55	0.01	7.70	1.193	260
26.304	16.14	20.53	0.01	7.70	1.193	260
26.336	16.11	20.50	0.01	7.70	1.193	260
26.368	16.10	20.49	0.01	7.70	1.193	260
26.400	16.10	20.49	0.01	7.70	1.193	260
26.432	16.11	20.50	0.01	7.70	1.193	260
26.464	16.11	20.50	0.01	7.70	1.193	260
26.496	16.13	20.52	0.01	7.70	1.193	260
26.528	16.15	20.55	0.01	7.70	1.193	260
26.560	16.17	20.57	0.01	7.70	1.193	260
26.592	16.18	20.58	0.01	7.70	1.193	260
26.624	16.18	20.57	0.01	7.70	1.193	260
26.656	16.18	20.57	0.01	7.70	1.193	260
26.688	16.18	20.57	0.01	7.70	1.193	260
26.720	16.19	20.58	0.01	7.70	1.193	260
26.752	16.18	20.58	0.01	7.70	1.193	260
26.784	16.16	20.56	0.01	7.71	1.193	260
26.816	16.15	20.54	0.01	7.71	1.193	260
26.848	16.14	20.53	0.01	7.71	1.193	260
26.880	16.13	20.52	0.01	7.70	1.193	260
26.912	16.14	20.53	0.01	7.70	1.193	260
26.944	16.15	20.54	0.01	7.70	1.193	260
26.976	16.16	20.55	0.01	7.70	1.188	259
27.008	16.17	20.56	0.01	7.70	1.188	259
27.040	16.17	20.57	0.01	7.70	1.188	259
27.072	16.17	20.56	0.00	7.70	1.188	259
27.104	16.15	20.54	0.01	7.70	1.188	259
27.136	16.13	20.52	0.01	7.70	1.188	259
27.168	16.11	20.50	0.01	7.70	1.188	259
27.200	16.09	20.48	0.01	7.70	1.188	259
27.232	16.06	20.46	0.01	7.70	1.188	259
27.264	16.03	20.42	0.01	7.70	1.188	259
27.296	16.00	20.39	0.01	7.70	1.188	259
27.328	15.99	20.38	0.01	7.70	1.188	259
27.360	16.00	20.39	0.01	7.70	1.188	259
27.392	16.02	20.41	0.00	7.70	1.188	259
27.424	16.05	20.44	0.01	7.70	1.188	259
27.456	16.08	20.48	0.01	7.70	1.193	260
27.488	16.11	20.50	0.01	7.71	1.193	260
27.520	16.14	20.53	0.01	7.70	1.193	260
27.552	16.15	20.54	0.00	7.70	1.193	260
27.584	16.16	20.55	0.01	7.70	1.193	260
27.616	16.15	20.55	0.01	7.71	1.193	260
27.648	16.15	20.55	0.01	7.70	1.193	260
27.680	16.14	20.53	0.01	7.70	1.193	260
27.712	16.13	20.52	0.01	7.70	1.193	260
27.744	16.11	20.50	0.00	7.70	1.193	260
27.776	16.10	20.49	0.01	7.70	1.193	260
27.808	16.10	20.49	0.01	7.70	1.193	260
27.840	16.10	20.49	0.01	7.70	1.193	260
27.872	16.09	20.49	0.01	7.70	1.193	260
27.904	16.09	20.48	0.00	7.70	1.188	259
27.936	16.10	20.49	0.01	7.70	1.188	259
27.968	16.11	20.50	0.01	7.70	1.188	259
28.000	16.12	20.51	0.01	7.70	1.188	259
28.032	16.12	20.52	0.01	7.70	1.188	259
28.064	16.12	20.51	0.01	7.70	1.188	259
28.096	16.11	20.50	0.01	7.70	1.188	259
28.128	16.11	20.50	0.01	7.71	1.188	259
28.160	16.11	20.50	0.01	7.70	1.188	259
28.192	16.10	20.49	0.01	7.70	1.188	259
28.224	16.10	20.49	0.01	7.70	1.188	259
28.256	16.10	20.50	0.01	7.70	1.188	259
28.288	16.11	20.50	0.01	7.70	1.188	259
28.320	16.11	20.50	0.01	7.70	1.188	259
28.352	16.11	20.50	0.01	7.70	1.188	259
28.384	16.11	20.50	0.01	7.71	1.188	259
28.416	16.11	20.50	0.01	7.71	1.188	259
28.448	16.12	20.51	0.01	7.70	1.188	259
28.480	16.13	20.52	0.01	7.70	1.188	259
28.512	16.13	20.53	0.01	7.70	1.188	259
28.544	16.14	20.54	0.01	7.71	1.188	259
28.576	16.15	20.55	0.01	7.71	1.188	259
28.608	16.17	20.56	0.01	7.70	1.188	259
28.640	16.18	20.57	0.01	7.70	1.188	259
28.672	16.17	20.57	0.01	7.70	1.188	259
28.704	16.17	20.56	0.01	7.71	1.188	259
28.736	16.17	20.57	0.01	7.70	1.188	259
28.768	16.18	20.57	0.01	7.70	1.188	259
28.800	16.18	20.57	0.01	7.70	1.188	259
28.832	16.18	20.57	0.01	7.70	1.188	259
28.864	16.17	20.57	0.01	7.70	1.193	260
28.896	16.16	20.55	0.01	7.71	1.193	260
28.928	16.16	20.55	0.01	7.70	1.193	260
28.960	16.15	20.54	0.01	7.70	1.193	260
28.992	16.13	20.53	0.01	7.70	1.193	260
29.024	16.11	20.50	0.01	7.71	1.193	260
29.056	16.09	20.48	0.01	7.71	1.193	260
29.088	16.07	20.47	0.02	7.71	1.193	260
29.120	16.06	20.45	0.01	7.70	1.193	260
29.152	16.05	20.44	0.01	7.70	1.193	260
29.184	16.06	20.45	0.01	7.70	1.193	260
29.216	16.09	20.48	0.01	7.71	1.193	260
29.248	16.12	20.51	0.01	7.70	1.193	260
29.280	16.14	20.53	0.01	7.70	1.193	260
29.312	16.16	20.55	0.01	7.70	1.193	260
29.344	16.17	20.56	0.01	7.70	1.193	260
29.376	16.18	20.57	0.01	7.70	1.193	260
29.408	16.19	20.59	0.01	7.70	1.193	260
29.440	16.20	20.59	0.01	7.70	1.193	260
29.472	16.20	20.59	0.01	7.70	1.193	260
29.504	16.19	20.58	0.01	7.70	1.193	260
29.536	16.17	20.57	0.02	7.71	1.193	260
29.568	16.16	20.56	0.01	7.71	1.193	260
29.600	16.15	20.54	0.01	7.70	1.193	260
29.632	16.14	20.53	0.01	7.70	1.193	260
29.664	16.12	20.52	0.01	7.70	1.193	260
29.696	16.12	20.51	0.01	7.71	1.193	260
29.728	16.12	20.51	0.01	7.70	1.193	260
29.760	16.13	20.52	0.01	7.70	1.193	260
29.792	16.15	20.54	0.01	7.70	1.188	259
29.824	16.17	20.56	0.01	7.70	1.188	259
29.856	16.17	20.57	0.01	7.70	1.188	259
29.888	16.17	20.57	0.01	7.70	1.188	259
29.920	16.17	20.56	0.01	7.70	1.188	259
29.952	16.17	20.56	0.00	7.70	1.188	259
29.984	16.15	20.55	0.01	7.70	1.188	259
30.016	16.14	20.54	0.02	7.71	1.188	259
30.048	16.13	20.52	0.01	7.70	1.188	259
30.080	16.11	20.51	0.00	7.70	1.188	259
30.112	16.10	20.49	0.01	7.70	1.188	259
30.144	16.07	20.47	0.01	7.70	1.188	259
30.176	16.06	20.45	0.01	7.70	1.188	259
30.208	16.05	20.44	0.01	7.70	1.188	259
30.240	16.04	20.44	0.01	7.70	1.188	259
30.272	16.05	20.44	0.01	7.70	1.193	260
30.304	16.06	20.45	0.01	7.70	1.193	260
30.336	16.08	20.47	0.01	7.71	1.193	260
30.368	16.09	20.48	0.01	7.70	1.193	260
30.400	16.12	20.51	0.01	7.70	1.193	260
30.432	16.13	20.52	0.01	7.70	1.193	260
30.464	16.14	20.53	0.01	7.70	1.193	260
30.496	16.14	20.53	0.01	7.71	1.193	260
30.528	16.13	20.52	0.01	7.70	1.193	260
30.560	16.11	20.50	0.01	7.70	1.193	260
30.592	16.10	20.49	0.01	7.70	1.193	260
30.624	16.10	20.49	0.01	7.70	1.193	260
30.656	16.10	20.49	0.01	7.71	1.193	260
30.688	16.11	20.50	0.01	7.71	1.193	260
30.720	16.11	20.51	0.01	7.70	1.193	260
30.752	16.13	20.52	0.01	7.70	1.193	260
30.784	16.15	20.54	0.01	7.70	1.193	260
30.816	16.17	20.56	0.01	7.70	1.193	260
30.848	16.18	20.57	0.01	7.70	1.193	260
30.880	16.17	20.56	0.01	7.70	1.193	260
30.912	16.16	20.55	0.01	7.70	1.193	260
30.944	16.15	20.54	0.01	7.70	1.193	260
30.976	16.14	20.53	0.01	7.70	1.193	260
31.008	16.12	20.51	0.01	7.70	1.193	260
31.040	16.09	20.48	0.01	7.70	1.193	260
31.072	16.07	20.47	0.01	7.70	1.193	260
31.104	16.08	20.47	0.01	7.70	1.193	260
31.136	16.08	20.48	0.01	7.70	1.193	260
31.168	16.09	20.48	0.01	7.70	1.193	260
31.200	16.09	20.49	0.01	7.70	1.188	259
31.232	16.09	20.48	0.01	7.70	1.188	259
31.264	16.08	20.47	0.01	7.70	1.188	259
31.296	16.06	20.45	0.01	7.70	1.188	259
31.328	16.05	20.44	0.00	7.70	1.188	259
31.360	16.05	20.44	0.01	7.70	1.188	259
31.392	16.04	20.43	0.01	7.70	1.188	259
31.424	16.04	20.43	0.01	7.71	1.188	259
31.456	16.02	20.41	0.01	7.71	1.188	259
31.488	16.00	20.39	0.01	7.70	1.188	259
31.520	15.99	20.38	0.01	7.70	1.188	259
31.552	15.99	20.38	0.01	7.70	1.188	259
31.584	15.99	20.38	0.01	7.70	1.188	259
31.616	16.01	20.40	0.01	7.70	1.188	259
31.648	16.02	20.41	0.01	7.70	1.188	259
31.680	16.03	20.42	0.01	7.70	1.188	259
31.712	16.04	20.43	0.01	7.70	1.188	259
31.744	16.06	20.46	0.01	7.70	1.188	259
31.776	16.08	20.47	0.01	7.70	1.188	259
31.808	16.08	20.47	0.01	7.70	1.188	259
31.840	16.08	20.47	0.00	7.70	1.188	259
31.872	16.08	20.47	0.01	7.71	1.188	259
31.904	16.07	20.46	0.01	7.70	1.188	259
31.936	16.06	20.45	0.01	7.70	1.188	259
31.968	16.04	20.44	0.01	7.70	1.188	259
32.000	16.05	20.44	0.00	7.70	1.188	259
32.032	16.05	20.44	0.01	7.70	1.188	259
32.064	16.06	20.45	0.01	7.70	1.188	259
32.096	16.07	20.47	0.01	7.70	1.188	259
32.128	16.09	20.48	0.01	7.70	1.188	259
32.160	16.10	20.49	0.00	7.70	1.188	259
32.192	16.12	20.51	0.01	7.70	1.188	259
32.224	16.12	20.52	0.01	7.70	1.188	259
32.256	16.11	20.51	0.01	7.70	1.188	259
32.288	16.10	20.49	0.01	7.70	1.188	259
32.320	16.08	20.47	0.01	7.70	1.188	259
32.352	16.06	20.45	0.01	7.70	1.188	259
32.384	16.04	20.44	0.01	7.70	1.188	259
32.416	16.02	20.41	0.01	7.70	1.188	259
32.448	16.01	20.40	0.01	7.70	1.188	259
32.480	16.01	20.41	0.01	7.70	1.188	259
32.512	16.04	20.43	0.01	7.70	1.188	259
32.544	16.06	20.46	0.01	7.71	1.188	259
32.576	16.09	20.48	0.01	7.70	1.188	259
32.608	16.11	20.50	0.01	7.70	1.188	259
32.640	16.12	20.52	0.01	7.70	1.188	259
32.672	16.13	20.52	0.01	7.70	1.188	259
32.704	16.14	20.53	0.01	7.70	1.188	259
32.736	16.12	20.52	0.01	7.70	1.188	259
32.768	16.10	20.50	0.01	7.70	1.188	259
32.800	16.09	20.48	0.01	7.71	1.188	259
32.832	16.06	20.46	0.01	7.70	1.188	259
32.864	16.03	20.42	0.01	7.71	1.188	259
32.896	15.99	20.38	0.01	7.70	1.188	259
32.928	15.96	20.35	0.00	7.70	1.188	259
32.960	15.96	20.36	0.01	7.70	1.188	259
32.992	15.99	20.38	0.01	7.70	1.188	259
33.024	16.02	20.41	0.01	7.71	1.188	259
33.056	16.05	20.44	0.01	7.70	1.188	259
33.088	16.08	20.47	0.01	7.70	1.188	259
33.120	16.10	20.49	0.01	7.70	1.188	259
33.152	16.11	20.50	0.01	7.70	1.188	259
33.184	16.11	20.50	0.01	7.70	1.188	259
33.216	16.11	20.50	0.01	7.70	1.188	259
33.248	16.10	20.49	0.01	7.70	1.188	259
33.280	16.10	20.49	0.01	7.70	1.188	259
33.312	16.10	20.49	0.01	7.70	1.188	259
33.344	16.09	20.48	0.01	7.70	1.188	259
33.376	16.07	20.47	0.01	7.70	1.188	259
33.408	16.06	20.46	0.01	7.70	1.188	259
33.440	16.07	20.47	0.01	7.70	1.188	259
33.472	16.09	20.48	0.01	7.70	1.188	259
33.504	16.10	20.49	0.02	7.71	1.188	259
33.536	16.11	20.50	0.01	7.70	1.188	259
33.568	16.12	20.51	0.01	7.70	1.188	259
33.600	16.12	20.52	0.01	7.70	1.188	259
33.632	16.13	20.52	0.01	7.70	1.188	259
33.664	16.13	20.52	0.01	7.70	1.188	259
33.696	16.12	20.52	0.01	7.70	1.188	259
33.728	16.12	20.51	0.01	7.70	1.188	259
33.760	16.11	20.50	0.01	7.70	1.188	259
33.792	16.09	20.49	0.01	7.70	1.188	259
33.824	16.07	20.47	0.01	7.71	1.188	259
33.856	16.06	20.45	0.01	7.71	1.188	259
33.888	16.06	20.45	0.00	7.70	1.188	259
33.920	16.08	20.47	0.01	7.70	1.188	259
33.952	16.10	20.49	0.01	7.70	1.188	259
33.984	16.11	20.50	0.01	7.70	1.188	259
34.016	16.13	20.52	0.00	7.70	1.193	260
34.048	16.14	20.53	0.01	7.70	1.193	260
34.080	16.15	20.54	0.01	7.70	1.193	260
34.112	16.15	20.54	0.02	7.71	1.193	260
34.144	16.14	20.53	0.02	7.71	1.193	260
34.176	16.12	20.51	0.00	7.70	1.193	260
34.208	16.10	20.49	0.01	7.70	1.193	260
34.240	16.07	20.46	0.01	7.70	1.193	260
34.272	16.05	20.44	0.01	7.70	1.193	260
34.304	16.02	20.41	0.01	7.70	1.193	260
34.336	16.00	20.39	0.01	7.70	1.193	260
34.368	16.00	20.39	0.01	7.70	1.193	260
34.400	16.01	20.41	0.01	7.70	1.193	260
34.432	16.04	20.43	0.02	7.71	1.193	260
34.464	16.06	20.45	0.01	7.70	1.183	258
34.496	16.08	20.47	0.00	7.70	1.183	258
34.528	16.10	20.49	0.01	7.70	1.183	258
34.560	16.11	20.51	0.01	7.70	1.183	258
34.592	16.11	20.50	0.01	7.70	1.183	258
34.624	16.10	20.49	0.01	7.70	1.183	258
34.656	16.08	20.47	0.01	7.70	1.183	258
34.688	16.07	20.46	0.01	7.70	1.183	258
34.720	16.06	20.45	0.01	7.70	1.183	258
34.752	16.03	20.42	0.01	7.71	1.183	258
34.784	16.01	20.40	0.00	7.70	1.183	258
34.816	16.00	20.39	0.01	7.70	1.183	258
34.848	16.01	20.41	0.01	7.70	1.183	258
34.880	16.04	20.43	0.01	7.70	1.183	258
34.912	16.07	20.46	0.01	7.70	1.183	258
34.944	16.09	20.48	0.01	7.70	1.188	259
34.976	16.10	20.49	0.01	7.70	1.188	259
35.008	16.11	20.50	0.01	7.70	1.188	259
35.040	16.10	20.49	0.01	7.70	1.188	259
35.072	16.07	20.47	0.01	7.70	1.188	259
35.104	16.04	20.44	0.01	7.70	1.188	259
35.136	16.02	20.42	0.01	7.70	1.188	259
35.168	16.00	20.39	0.01	7.70	1.188	259
35.200	15.98	20.37	0.01	7.70	1.188	259
35.232	15.95	20.35	0.01	7.71	1.188	259
35.264	15.95	20.34	0.01	7.70	1.188	259
35.296	15.96	20.35	0.00	7.70	1.188	259
35.328	15.98	20.37	0.01	7.70	1.188	259
35.360	16.00	20.39	0.01	7.70	1.188	259
35.392	16.03	20.42	0.01	7.70	1.188	259
35.424	16.06	20.45	0.01	7.70	1.188	259
35.456	16.08	20.48	0.01	7.70	1.188	259
35.488	16.11	20.50	0.01	7.70	1.188	259
35.520	16.12	20.52	0.01	7.70	1.188	259
35.552	16.13	20.53	0.01	7.71	1.188	259
35.584	16.14	20.53	0.01	7.70	1.188	259
35.616	16.15	20.54	0.01	7.70	1.188	259
35.648	16.15	20.54	0.01	7.70	1.188	259
35.680	16.13	20.52	0.01	7.70	1.188	259
35.712	16.11	20.50	0.01	7.70	1.188	259
35.744	16.09	20.48	0.00	7.70	1.188	259
35.776	16.09	20.48	0.01	7.70	1.188	259
35.808	16.10	20.49	0.01	7.70	1.188	259
35.840	16.11	20.51	0.01	7.70	1.188	259
35.872	16.13	20.52	0.01	7.70	1.193	260
35.904	16.15	20.55	0.01	7.70	1.193	260
35.936	16.18	20.57	0.00	7.70	1.193	260
35.968	16.19	20.58	0.01	7.70	1.193	260
36.000	16.19	20.58	0.01	7.70	1.193	260
36.032	16.18	20.57	0.01	7.71	1.193	260
36.064	16.16	20.55	0.01	7.70	1.193	260
36.096	16.15	20.54	0.01	7.70	1.193	260
36.128	16.14	20.53	0.01	7.70	1.193	260
36.160	16.11	20.50	0.01	7.70	1.193	260
36.192	16.09	20.48	0.01	7.70	1.193	260
36.224	16.09	20.48	0.01	7.70	1.193	260
36.256	16.09	20.49	0.01	7.70	1.193	260
36.288	16.12	20.51	0.01	7.70	1.193	260
36.320	16.14	20.53	0.01	7.70	1.193	260
36.352	16.15	20.54	0.01	7.70	1.188	259
36.384	16.16	20.56	0.01	7.70	1.188	259
36.416	16.18	20.57	0.01	7.70	1.188	259
36.448	16.18	20.57	0.01	7.70	1.188	259
36.480	16.17	20.57	0.01	7.70	1.188	259
36.512	16.17	20.56	0.01	7.70	1.188	259
36.544	16.17	20.56	0.01	7.70	1.188	259
36.576	16.16	20.55	0.01	7.70	1.188	259
36.608	16.15	20.54	0.01	7.70	1.188	259
36.640	16.13	20.52	0.01	7.70	1.188	259
36.672	16.12	20.51	0.01	7.70	1.188	259
36.704	16.11	20.50	0.01	7.70	1.188	259
36.736	16.11	20.51	0.01	7.70	1.188	259
36.768	16.12	20.51	0.01	7.70	1.188	259
36.800	16.12	20.51	0.01	7.70	1.193	260
36.832	16.12	20.52	0.01	7.70	1.193	260
36.864	16.12	20.51	0.01	7.70	1.193	260
36.896	16.12	20.51	0.01	7.70	1.193	260
36.928	16.11	20.50	0.01	7.70	1.193	260
36.960	16.09	20.48	0.01	7.70	1.193	260
36.992	16.08	20.47	0.01	7.71	1.193	260
37.024	16.07	20.46	0.01	7.70	1.193	260
37.056	16.06	20.45	0.00	7.70	1.193	260
37.088	16.05	20.44	0.01	7.70	1.193	260
37.120	16.04	20.43	0.01	7.70	1.193	260
37.152	16.04	20.44	0.01	7.71	1.193	260
37.184	16.06	20.46	0.01	7.70	1.193	260
37.216	16.09	20.48	0.01	7.70	1.193	260
37.248	16.11	20.50	0.01	7.70	1.193	260
37.280	16.13	20.52	0.01	7.70	1.188	259
37.312	16.15	20.54	0.01	7.70	1.188	259
37.344	16.15	20.54	0.01	7.70	1.188	259
37.376	16.16	20.55	0.01	7.70	1.188	259
37.408	16.14	20.53	0.01	7.70	1.188	259
37.440	16.12	20.51	0.01	7.70	1.188	259
37.472	16.11	20.50	0.01	7.70	1.188	259
37.504	16.10	20.49	0.01	7.70	1.188	259
37.536	16.09	20.48	0.01	7.70	1.188	259
37.568	16.07	20.47	0.01	7.70	1.188	259
37.600	16.05	20.45	0.02	7.71	1.188	259
37.632	16.05	20.44	0.00	7.70	1.188	259
37.664	16.05	20.44	0.01	7.70	1.188	259
37.696	16.05	20.44	0.01	7.70	1.188	259
37.728	16.07	20.46	0.01	7.70	1.188	259
37.760	16.08	20.48	0.01	7.70	1.188	259
37.792	16.10	20.49	0.01	7.70	1.188	259
37.824	16.11	20.50	0.01	7.70	1.188	259
37.856	16.12	20.52	0.01	7.70	1.188	259
37.888	16.13	20.52	0.01	7.70	1.188	259
37.920	16.12	20.51	0.01	7.70	1.188	259
37.952	16.11	20.50	0.01	7.70	1.188	259
37.984	16.10	20.50	0.01	7.70	1.188	259
38.016	16.09	20.48	0.01	7.70	1.188	259
38.048	16.06	20.45	0.01	7.70	1.188	259
38.080	16.05	20.44	0.01	7.70	1.188	259
38.112	16.06	20.45	0.02	7.71	1.188	259
38.144	16.08	20.47	0.01	7.70	1.188	259
38.176	16.10	20.49	0.00	7.70	1.188	259
38.208	16.12	20.51	0.01	7.70	1.193	260
38.240	16.14	20.53	0.01	7.70	1.193	260
38.272	16.15	20.54	0.01	7.70	1.193	260
38.304	16.16	20.55	0.00	7.70	1.193	260
38.336	16.16	20.55	0.01	7.70	1.193	260
38.368	16.15	20.55	0.00	7.70	1.193	260
38.400	16.16	20.55	0.01	7.70	1.193	260
38.432	16.15	20.54	0.01	7.70	1.193	260
38.464	16.14	20.53	0.01	7.70	1.193	260
38.496	16.12	20.51	0.01	7.70	1.193	260
38.528	16.09	20.49	0.01	7.71	1.193	260
38.560	16.09	20.48	0.01	7.71	1.193	260
38.592	16.10	20.49	0.01	7.70	1.193	260
38.624	16.11	20.50	0.01	7.70	1.193	260
38.656	16.13	20.52	0.01	7.70	1.193	260
38.688	16.15	20.54	0.00	7.70	1.188	259
38.720	16.17	20.57	0.01	7.70	1.188	259
38.752	16.20	20.59	0.01	7.70	1.188	259
38.784	16.20	20.59	0.01	7.70	1.188	259
38.816	16.20	20.59	0.01	7.70	1.188	259
38.848	16.19	20.58	0.01	7.70	1.188	259
38.880	16.19	20.58	0.01	7.71	1.188	259
38.912	16.19	20.58	0.01	7.70	1.188	259
38.944	16.18	20.57	0.00	7.70	1.188	259
38.976	16.16	20.56	0.00	7.70	1.188	259
39.008	16.15	20.54	0.01	7.70	1.188	259
39.040	16.14	20.53	0.01	7.70	1.188	259
39.072	16.13	20.53	0.01	7.70	1.188	259
39.104	16.14	20.53	0.00	7.70	1.188	259
39.136	16.14	20.53	0.01	7.70	1.188	259
39.168	16.16	20.55	0.01	7.70	1.193	260
39.200	16.18	20.58	0.01	7.71	1.193	260
39.232	16.20	20.60	0.01	7.70	1.193	260
39.264	16.22	20.61	0.01	7.70	1.193	260
39.296	16.22	20.62	0.01	7.70	1.193	260
39.328	16.21	20.60	0.01	7.70	1.193	260
39.360	16.20	20.59	0.01	7.70	1.193	260
39.392	16.18	20.58	0.01	7.70	1.193	260
39.424	16.16	20.56	0.01	7.70	1.193	260
39.456	16.14	20.53	0.01	7.70	1.193	260
39.488	16.11	20.51	0.01	7.70	1.193	260
39.520	16.11	20.50	0.01	7.70	1.193	260
39.552	16.10	20.49	0.00	7.70	1.193	260
39.584	16.10	20.49	0.01	7.70	1.193	260
39.616	16.12	20.51	0.01	7.70	1.193	260
39.648	16.14	20.53	0.01	7.70	1.193	260
39.680	16.15	20.54	0.01	7.70	1.193	260
39.712	16.18	20.57	0.01	7.70	1.193	260
39.744	16.19	20.58	0.00	7.70	1.193	260
39.776	16.19	20.58	0.00	7.70	1.193	260
39.808	16.19	20.58	0.01	7.70	1.193	260
39.840	16.18	20.57	0.01	7.70	1.193	260
39.872	16.17	20.56	0.01	7.71	1.193	260
39.904	16.14	20.53	0.01	7.70	1.193	260
39.936	16.12	20.52	0.01	7.70	1.193	260
39.968	16.11	20.50	0.01	7.70	1.193	260
40.000	16.11	20.50	0.01	7.70	1.193	260
40.032	16.11	20.50	0.01	7.70	1.193	260
40.064	16.12	20.51	0.01	7.70	1.193	260
40.096	16.13	20.52	0.01	7.70	1.188	259
40.128	16.14	20.53	0.01	7.70	1.188	259
40.160	16.15	20.54	0.01	7.70	1.188	259
40.192	16.15	20.55	0.01	7.70	1.188	259
40.224	16.15	20.55	0.01	7.70	1.188	259
40.256	16.15	20.54	0.01	7.70	1.188	259
40.288	16.15	20.54	0.01	7.70	1.188	259
40.320	16.14	20.53	0.01	7.70	1.188	259
40.352	16.12	20.51	0.01	7.70	1.188	259
40.384	16.09	20.48	0.01	7.70	1.188	259
40.416	16.06	20.45	0.01	7.70	1.188	259
40.448	16.05	20.45	0.01	7.70	1.188	259
40.480	16.06	20.45	0.01	7.70	1.188	259
40.512	16.07	20.46	0.01	7.70	1.188	259
40.544	16.09	20.48	0.01	7.70	1.193	260
40.576	16.11	20.50	0.01	7.70	1.193	260
40.608	16.12	20.52	0.01	7.70	1.193	260
40.640	16.14	20.53	0.01	7.71	1.193	260
40.672	16.14	20.54	0.01	7.70	1.193	260
40.704	16.14	20.53	0.01	7.70	1.193	260
40.736	16.14	20.53	0.01	7.70	1.193	260
40.768	16.12	20.52	0.01	7.70	1.193	260
40.800	16.11	20.50	0.01	7.70	1.193	260
40.832	16.09	20.49	0.00	7.70	1.193	260
40.864	16.06	20.46	0.01	7.70	1.193	260
40.896	16.05	20.44	0.01	7.70	1.193	260
40.928	16.04	20.43	0.01	7.70	1.193	260
40.960	16.03	20.42	0.01	7.70	1.193	260
40.992	16.04	20.43	0.01	7.70	1.193	260
41.024	16.06	20.45	0.01	7.70	1.188	259
41.056	16.08	20.48	0.01	7.70	1.188	259
41.088	16.12	20.51	0.01	7.70	1.188	259
41.120	16.14	20.53	0.02	7.71	1.188	259
41.152	16.15	20.54	0.01	7.70	1.188	259
41.184	16.16	20.55	0.00	7.70	1.188	259
41.216	16.16	20.56	0.01	7.70	1.188	259
41.248	16.16	20.56	0.01	7.70	1.188	259
41.280	16.16	20.55	0.01	7.70	1.188	259
41.312	16.14	20.53	0.01	7.70	1.188	259
41.344	16.12	20.52	0.01	7.70	1.188	259
41.376	16.12	20.51	0.01	7.70	1.188	259
41.408	16.13	20.53	0.01	7.70	1.188	259
41.440	16.16	20.55	0.01	7.70	1.188	259
41.472	16.19	20.58	0.01	7.70	1.188	259
41.504	16.21	20.61	0.01	7.70	1.193	260
41.536	16.22	20.62	0.01	7.70	1.193	260
41.568	16.23	20.62	0.01	7.71	1.193	260
41.600	16.22	20.62	0.01	7.70	1.193	260
41.632	16.21	20.60	0.01	7.70	1.193	260
41.664	16.20	20.59	0.00	7.70	1.193	260
41.696	16.19	20.58	0.01	7.70	1.193	260
41.728	16.18	20.57	0.01	7.70	1.193	260
41.760	16.16	20.56	0.01	7.70	1.193	260
41.792	16.15	20.54	0.01	7.70	1.193	260
41.824	16.14	20.53	0.00	7.70	1.193	260
41.856	16.14	20.53	0.01	7.70	1.193	260
41.888	16.15	20.54	0.01	7.70	1.193	260
41.920	16.17	20.56	0.01	7.71	1.193	260
41.952	16.19	20.58	0.01	7.70	1.193	260
41.984	16.19	20.58	0.01	7.70	1.193	260
42.016	16.20	20.59	0.01	7.71	1.193	260
42.048	16.21	20.61	0.01	7.70	1.193	260
42.080	16.21	20.60	0.01	7.70	1.193	260
42.112	16.20	20.59	0.01	7.70	1.193	260
42.144	16.18	20.58	0.01	7.70	1.193	260
42.176	16.17	20.56	0.01	7.70	1.193	260
42.208	16.15	20.54	0.02	7.71	1.193	260
42.240	16.12	20.52	0.01	7.70	1.193	260
42.272	16.09	20.48	0.01	7.70	1.193	260
42.304	16.07	20.47	0.01	7.70	1.193	260
42.336	16.07	20.46	0.01	7.70	1.193	260
42.368	16.08	20.48	0.01	7.70	1.193	260
42.400	16.11	20.50	0.01	7.70	1.193	260
42.432	16.14	20.53	0.01	7.70	1.188	259
42.464	16.16	20.55	0.00	7.70	1.188	259
42.496	16.19	20.58	0.01	7.70	1.188	259
42.528	16.21	20.61	0.01	7.70	1.188	259
42.560	16.23	20.62	0.01	7.70	1.188	259
42.592	16.23	20.62	0.01	7.70	1.188	259
42.624	16.23	20.62	0.01	7.70	1.188	259
42.656	16.23	20.62	0.01	7.70	1.188	259
42.688	16.22	20.62	0.01	7.70	1.188	259
42.720	16.21	20.60	0.01	7.70	1.188	259
42.752	16.20	20.59	0.00	7.70	1.188	259
42.784	16.19	20.58	0.01	7.70	1.188	259
42.816	16.19	20.58	0.01	7.70	1.188	259
42.848	16.20	20.59	0.01	7.70	1.188	259
42.880	16.21	20.60	0.01	7.70	1.188	259
42.912	16.22	20.62	0.01	7.70	1.193	260
42.944	16.23	20.62	0.00	7.70	1.193	260
42.976	16.24	20.63	0.01	7.70	1.193	260
43.008	16.24	20.63	0.01	7.70	1.193	260
43.040	16.22	20.61	0.01	7.71	1.193	260
43.072	16.20	20.59	0.01	7.70	1.193	260
43.104	16.19	20.58	0.01	7.70	1.193	260
43.136	16.17	20.57	0.01	7.70	1.193	260
43.168	16.16	20.55	0.01	7.71	1.193	260
43.200	16.15	20.54	0.01	7.70	1.193	260
43.232	16.15	20.54	0.01	7.70	1.193	260
43.264	16.16	20.55	0.00	7.70	1.193	260
43.296	16.17	20.57	0.01	7.70	1.193	260
43.328	16.20	20.59	0.01	7.71	1.193	260
43.360	16.22	20.61	0.01	7.70	1.193	260
43.392	16.23	20.63	0.01	7.70	1.193	260
43.424	16.25	20.65	0.01	7.70	1.193	260
43.456	16.27	20.66	0.01	7.70	1.193	260
43.488	16.27	20.66	0.01	7.70	1.193	260
43.520	16.25	20.65	0.01	7.70	1.193	260
43.552	16.23	20.62	0.01	7.70	1.193	260
43.584	16.20	20.59	0.01	7.70	1.193	260
43.616	16.17	20.57	0.01	7.70	1.193	260
43.648	16.15	20.54	0.01	7.70	1.193	260
43.680	16.13	20.52	0.02	7.71	1.193	260
43.712	16.12	20.51	0.01	7.70	1.193	260
43.744	16.11	20.50	0.01	7.70	1.193	260
43.776	16.11	20.50	0.01	7.70	1.193	260
43.808	16.12	20.51	0.01	7.70	1.193	260
43.840	16.14	20.53	0.01	7.70	1.193	260
43.872	16.17	20.56	0.01	7.70	1.193	260
43.904	16.19	20.59	0.01	7.70	1.193	260
43.936	16.21	20.61	0.01	7.70	1.193	260
43.968	16.22	20.62	0.01	7.70	1.193	260
44.000	16.22	20.61	0.01	7.70	1.193	260
44.032	16.22	20.61	0.01	7.70	1.193	260
44.064	16.20	20.60	0.00	7.70	1.193	260
44.096	16.18	20.57	0.01	7.70	1.193	260
44.128	16.15	20.54	0.01	7.70	1.193	260
44.160	16.13	20.52	0.01	7.70	1.193	260
44.192	16.11	20.50	0.01	7.70	1.193	260
44.224	16.11	20.51	0.01	7.70	1.193	260
44.256	16.13	20.52	0.01	7.70	1.193	260
44.288	16.16	20.55	0.01	7.70	1.188	259
44.320	16.19	20.58	0.01	7.71	1.188	259
44.352	16.21	20.61	0.01	7.70	1.188	259
44.384	16.24	20.63	0.01	7.70	1.188	259
44.416	16.25	20.64	0.01	7.70	1.188	259
44.448	16.24	20.64	0.01	7.70	1.188	259
44.480	16.23	20.63	0.01	7.70	1.188	259
44.512	16.21	20.60	0.01	7.70	1.188	259
44.544	16.17	20.57	0.00	7.70	1.188	259
44.576	16.13	20.52	0.01	7.70	1.188	259
44.608	16.09	20.49	0.01	7.70	1.188	259
44.640	16.06	20.46	0.01	7.70	1.188	259
44.672	16.06	20.45	0.00	7.70	1.188	259
44.704	16.06	20.45	0.01	7.70	1.188	259
44.736	16.07	20.46	0.01	7.70	1.188	259
44.768	16.09	20.48	0.01	7.70	1.193	260
44.800	16.12	20.51	0.01	7.70	1.193	260
44.832	16.14	20.53	0.01	7.70	1.193	260
44.864	16.15	20.55	0.01	7.70	1.193	260
44.896	16.15	20.54	0.01	7.70	1.193	260
44.928	16.15	20.54	0.01	7.70	1.193	260
44.960	16.14	20.53	0.01	7.70	1.193	260
44.992	16.13	20.53	0.01	7.70	1.193	260
45.024	16.13	20.52	0.01	7.70	1.193	260
45.056	16.11	20.50	0.01	7.70	1.193	260
45.088	16.10	20.50	0.01	7.70	1.193	260
45.120	16.11	20.51	0.01	7.70	1.193	260
45.152	16.14	20.53	0.01	7.70	1.193	260
45.184	16.16	20.55	0.01	7.71	1.193	260
45.216	16.18	20.57	0.01	7.70	1.193	260
45.248	16.20	20.59	0.01	7.70	1.188	259
45.280	16.21	20.60	0.01	7.71	1.188	259
45.312	16.22	20.62	0.01	7.70	1.188	259
45.344	16.23	20.62	0.00	7.70	1.188	259
45.376	16.23	20.62	0.01	7.70	1.188	259
45.408	16.22	20.61	0.01	7.70	1.188	259
45.440	16.21	20.61	0.01	7.71	1.188	259
45.472	16.20	20.59	0.01	7.70	1.188	259
45.504	16.17	20.57	0.01	7.70	1.188	259
45.536	16.15	20.54	0.01	7.70	1.188	259
45.568	16.13	20.52	0.01	7.71	1.188	259
45.600	16.13	20.53	0.01	7.70	1.188	259
45.632	16.15	20.54	0.01	7.70	1.188	259
45.664	16.17	20.56	0.01	7.70	1.188	259
45.696	16.19	20.58	0.01	7.70	1.193	260
45.728	16.20	20.59	0.01	7.70	1.193	260
45.760	16.21	20.61	0.01	7.70	1.193	260
45.792	16.23	20.62	0.01	7.70	1.193	260
45.824	16.24	20.63	0.01	7.70	1.193	260
45.856	16.23	20.62	0.01	7.70	1.193	260
45.888	16.22	20.61	0.01	7.70	1.193	260
45.920	16.20	20.60	0.01	7.70	1.193	260
45.952	16.19	20.58	0.01	7.70	1.193	260
45.984	16.16	20.55	0.01	7.70	1.193	260
46.016	16.14	20.53	0.01	7.70	1.193	260
46.048	16.12	20.51	0.01	7.70	1.193	260
46.080	16.12	20.51	0.01	7.70	1.193	260
46.112	16.13	20.52	0.01	7.70	1.193	260
46.144	16.15	20.54	0.00	7.70	1.193	260
46.176	16.17	20.56	0.01	7.70	1.193	260
46.208	16.18	20.58	0.01	7.70	1.193	260
46.240	16.20	20.59	0.01	7.70	1.193	260
46.272	16.21	20.60	0.01	7.70	1.193	260
46.304	16.21	20.61	0.01	7.70	1.193	260
46.336	16.21	20.60	0.01	7.70	1.193	260
46.368	16.20	20.59	0.01	7.71	1.193	260
46.400	16.19	20.58	0.01	7.70	1.193	260
46.432	16.18	20.57	0.01	7.70	1.193	260
46.464	16.16	20.56	0.01	7.70	1.193	260
46.496	16.15	20.54	0.01	7.70	1.193	260
46.528	16.14	20.54	0.01	7.70	1.193	260
46.560	16.16	20.55	0.01	7.70	1.193	260
46.592	16.18	20.57	0.01	7.70	1.193	260
46.624	16.21	20.60	0.00	7.70	1.193	260
46.656	16.24	20.63	0.01	7.70	1.193	260
46.688	16.26	20.65	0.01	7.70	1.193	260
46.720	16.29	20.68	0.01	7.70	1.193	260
46.752	16.30	20.70	0.00	7.70	1.193	260
46.784	16.31	20.70	0.01	7.70	1.193	260
46.816	16.31	20.70	0.01	7.70	1.193	260
46.848	16.29	20.69	0.01	7.70	1.193	260
46.880	16.28	20.68	0.01	7.70	1.193	260
46.912	16.26	20.65	0.01	7.70	1.193	260
46.944	16.24	20.64	0.01	7.70	1.193	260
46.976	16.23	20.62	0.01	7.70	1.193	260
47.008	16.22	20.62	0.01	7.70	1.193	260
47.040	16.23	20.62	0.01	7.70	1.193	260
47.072	16.24	20.64	0.01	7.70	1.193	260
47.104	16.27	20.67	0.00	7.70	1.197	261
47.136	16.30	20.69	0.01	7.70	1.197	261
47.168	16.33	20.72	0.01	7.70	1.197	261
47.200	16.35	20.74	0.01	7.70	1.197	261
47.232	16.36	20.75	0.01	7.70	1.197	261
47.264	16.35	20.74	0.01	7.70	1.197	261
47.296	16.36	20.75	0.01	7.70	1.197	261
47.328	16.36	20.75	0.01	7.70	1.197	261
47.360	16.35	20.74	0.01	7.70	1.197	261
47.392	16.32	20.71	0.01	7.70	1.197	261
47.424	16.27	20.67	0.00	7.70	1.197	261
47.456	16.24	20.63	0.01	7.70	1.197	261
47.488	16.22	20.61	0.01	7.70	1.197	261
47.520	16.21	20.60	0.01	7.70	1.197	261
47.552	16.22	20.61	0.01	7.70	1.197	261
47.584	16.23	20.62	0.01	7.70	1.193	260
47.616	16.25	20.64	0.01	7.70	1.193	260
47.648	16.26	20.65	0.01	7.70	1.193	260
47.680	16.27	20.67	0.01	7.71	1.193	260
47.712	16.28	20.67	0.01	7.70	1.193	260
47.744	16.28	20.67	0.01	7.70	1.193	260
47.776	16.27	20.67	0.01	7.70	1.193	260
47.808	16.27	20.67	0.01	7.70	1.193	260
47.840	16.27	20.66	0.01	7.70	1.193	260
47.872	16.26	20.65	0.01	7.70	1.193	260
47.904	16.25	20.64	0.01	7.70	1.193	260
47.936	16.24	20.63	0.01	7.70	1.193	260
47.968	16.23	20.62	0.01	7.70	1.193	260
48.000	16.23	20.62	0.01	7.70	1.193	260
48.032	16.24	20.63	0.01	7.70	1.193	260
48.064	16.24	20.63	0.00	7.70	1.197	261
48.096	16.25	20.64	0.01	7.70	1.197	261
48.128	16.25	20.64	0.01	7.70	1.197	261
48.160	16.24	20.63	0.01	7.70	1.197	261
48.192	16.23	20.63	0.01	7.71	1.197	261
48.224	16.22	20.61	0.01	7.70	1.197	261
48.256	16.20	20.59	0.01	7.70	1.197	261
48.288	16.19	20.58	0.01	7.70	1.197	261
48.320	16.18	20.57	0.01	7.70	1.197	261
48.352	16.17	20.56	0.01	7.70	1.197	261
48.384	16.17	20.56	0.01	7.70	1.197	261
48.416	16.17	20.57	0.01	7.70	1.197	261
48.448	16.17	20.57	0.01	7.71	1.197	261
48.480	16.18	20.57	0.01	7.70	1.197	261
48.512	16.19	20.58	0.01	7.70	1.193	260
48.544	16.19	20.59	0.01	7.70	1.193	260
48.576	16.20	20.59	0.01	7.70	1.193	260
48.608	16.20	20.59	0.01	7.70	1.193	260
48.640	16.19	20.59	0.01	7.70	1.193	260
48.672	16.19	20.59	0.01	7.71	1.193	260
48.704	16.20	20.59	0.01	7.70	1.193	260
48.736	16.20	20.59	0.01	7.70	1.193	260
48.768	16.19	20.58	0.01	7.70	1.193	260
48.800	16.17	20.56	0.01	7.70	1.193	260
48.832	16.16	20.56	0.01	7.70	1.193	260
48.864	16.17	20.56	0.01	7.70	1.193	260
48.896	16.19	20.58	0.01	7.70	1.193	260
48.928	16.20	20.60	0.01	7.70	1.193	260
48.960	16.22	20.62	0.01	7.71	1.193	260
48.992	16.25	20.64	0.01	7.70	1.193	260
49.024	16.27	20.66	0.00	7.70	1.193	260
49.056	16.29	20.68	0.01	7.70	1.193	260
49.088	16.30	20.69	0.01	7.70	1.193	260
49.120	16.30	20.69	0.01	7.70	1.193	260
49.152	16.28	20.67	0.01	7.70	1.193	260
49.184	16.26	20.66	0.01	7.70	1.193	260
49.216	16.25	20.64	0.01	7.70	1.193	260
49.248	16.23	20.62	0.01	7.70	1.193	260
49.280	16.20	20.59	0.02	7.71	1.193	260
49.312	16.18	20.57	0.01	7.70	1.193	260
49.344	16.17	20.57	0.01	7.70	1.193	260
49.376	16.17	20.56	0.01	7.70	1.193	260
49.408	16.17	20.57	0.01	7.71	1.193	260
49.440	16.17	20.57	0.01	7.71	1.193	260
49.472	16.17	20.57	0.00	7.70	1.193	260
49.504	16.18	20.57	0.00	7.70	1.193	260
49.536	16.19	20.58	0.01	7.70	1.193	260
49.568	16.20	20.59	0.01	7.70	1.193	260
49.600	16.20	20.59	0.02	7.71	1.193	260
49.632	16.20	20.59	0.01	7.70	1.193	260
49.664	16.20	20.59	0.01	7.70	1.193	260
49.696	16.20	20.60	0.00	7.70	1.193	260
49.728	16.19	20.59	0.01	7.70	1.193	260
49.760	16.19	20.58	0.01	7.70	1.193	260
49.792	16.19	20.58	0.01	7.70	1.193	260
49.824	16.20	20.59	0.01	7.70	1.193	260
49.856	16.22	20.62	0.00	7.70	1.193	260
49.888	16.26	20.65	0.01	7.70	1.193	260
49.920	16.30	20.69	0.01	7.70	1.197	261
49.952	16.34	20.73	0.01	7.70	1.197	261
49.984	16.37	20.76	0.01	7.70	1.197	261
50.016	16.38	20.78	0.01	7.70	1.197	261
50.048	16.39	20.78	0.01	7.70	1.197	261
50.080	16.38	20.77	0.01	7.71	1.197	261
50.112	16.37	20.76	0.01	7.70	1.197	261
50.144	16.36	20.75	0.01	7.70	1.197	261
50.176	16.34	20.73	0.01	7.70	1.197	261
50.208	16.32	20.71	0.01	7.70	1.197	261
50.240	16.31	20.70	0.02	7.71	1.197	261
50.272	16.31	20.70	0.00	7.70	1.197	261
50.304	16.30	20.70	0.01	7.70	1.197	261
50.336	16.30	20.69	0.01	7.70	1.197	261
50.368	16.30	20.70	0.01	7.70	1.197	261
50.400	16.31	20.70	0.02	7.71	1.197	261
50.432	16.31	20.70	0.01	7.70	1.197	261
50.464	16.31	20.70	0.00	7.70	1.197	261
50.496	16.30	20.70	0.01	7.70	1.197	261
50.528	16.30	20.69	0.01	7.70	1.197	261
50.560	16.30	20.69	0.01	7.70	1.197	261
50.592	16.29	20.69	0.01	7.70	1.197	261
50.624	16.29	20.68	0.01	7.70	1.197	261
50.656	16.28	20.67	0.01	7.70	1.197	261
50.688	16.27	20.66	0.01	7.70	1.197	261
50.720	16.28	20.67	0.01	7.71	1.197	261
50.752	16.29	20.69	0.01	7.70	1.197	261
50.784	16.31	20.71	0.01	7.70	1.197	261
50.816	16.33	20.72	0.01	7.70	1.197	261
50.848	16.35	20.74	0.01	7.70	1.197	261
50.880	16.36	20.75	0.01	7.70	1.197	261
50.912	16.37	20.77	0.01	7.70	1.197	261
50.944	16.38	20.77	0.01	7.70	1.197	261
50.976	16.37	20.76	0.01	7.70	1.197	261
51.008	16.36	20.75	0.01	7.70	1.197	261
51.040	16.35	20.74	0.01	7.70	1.197	261
51.072	16.34	20.73	0.01	7.70	1.197	261
51.104	16.32	20.71	0.01	7.70	1.197	261
51.136	16.29	20.69	0.01	7.70	1.197	261
51.168	16.27	20.67	0.01	7.70	1.197	261
51.200	16.27	20.66	0.01	7.70	1.197	261
51.232	16.28	20.67	0.01	7.70	1.197	261
51.264	16.29	20.69	0.01	7.70	1.197	261
51.296	16.31	20.71	0.01	7.70	1.197	261
51.328	16.33	20.73	0.01	7.70	1.197	261
51.360	16.35	20.74	0.01	7.71	1.197	261
51.392	16.37	20.76	0.01	7.70	1.197	261
51.424	16.38	20.77	0.00	7.70	1.197	261
51.456	16.37	20.76	0.01	7.70	1.197	261
51.488	16.37	20.76	0.01	7.70	1.197	261
51.520	16.36	20.75	0.01	7.70	1.197	261
51.552	16.35	20.74	0.01	7.70	1.197	261
51.584	16.32	20.72	0.00	7.70	1.197	261
51.616	16.29	20.68	0.00	7.70	1.197	261
51.648	16.27	20.67	0.01	7.70	1.197	261
51.680	16.28	20.67	0.01	7.70	1.197	261
51.712	16.29	20.68	0.01	7.70	1.197	261
51.744	16.30	20.70	0.01	7.70	1.197	261
51.776	16.34	20.73	0.01	7.70	1.197	261
51.808	16.37	20.76	0.01	7.71	1.197	261
51.840	16.40	20.79	0.01	7.70	1.197	261
51.872	16.43	20.82	0.01	7.70	1.197	261
51.904	16.43	20.83	0.00	7.70	1.197	261
51.936	16.42	20.82	0.01	7.70	1.197	261
51.968	16.41	20.80	0.01	7.70	1.197	261
52.000	16.38	20.78	0.01	7.71	1.197	261
52.032	16.35	20.74	0.01	7.70	1.197	261
52.064	16.31	20.70	0.01	7.70	1.197	261
52.096	16.27	20.66	0.01	7.70	1.197	261
52.128	16.24	20.63	0.01	7.70	1.197	261
52.160	16.22	20.61	0.01	7.71	1.197	261
52.192	16.22	20.62	0.01	7.70	1.197	261
52.224	16.25	20.64	0.01	7.70	1.197	261
52.256	16.27	20.67	0.01	7.70	1.197	261
52.288	16.30	20.69	0.01	7.70	1.197	261
52.320	16.33	20.72	0.01	7.70	1.197	261
52.352	16.34	20.73	0.01	7.70	1.197	261
52.384	16.35	20.74	0.01	7.70	1.197	261
52.416	16.34	20.73	0.01	7.70	1.197	261
52.448	16.33	20.72	0.01	7.70	1.197	261
52.480	16.31	20.71	0.01	7.71	1.197	261
52.512	16.30	20.69	0.01	7.70	1.197	261
52.544	16.28	20.67	0.01	7.70	1.197	261
52.576	16.28	20.67	0.01	7.70	1.197	261
52.608	16.30	20.69	0.01	7.70	1.197	261
52.640	16.31	20.71	0.01	7.71	1.197	261
52.672	16.33	20.72	0.01	7.70	1.197	261
52.704	16.34	20.73	0.01	7.70	1.197	261
52.736	16.35	20.74	0.01	7.70	1.197	261
52.768	16.35	20.75	0.01	7.71	1.197	261
52.800	16.35	20.75	0.01	7.71	1.197	261
52.832	16.35	20.74	0.00	7.70	1.197	261
52.864	16.34	20.73	0.01	7.70	1.197	261
52.896	16.32	20.72	0.00	7.70	1.197	261
52.928	16.31	20.70	0.01	7.70	1.197	261
52.960	16.29	20.68	0.01	7.71	1.197	261
52.992	16.27	20.66	0.01	7.70	1.197	261
53.024	16.25	20.64	0.01	7.70	1.197	261
53.056	16.24	20.63	0.01	7.70	1.197	261
53.088	16.25	20.64	0.01	7.70	1.197	261
53.120	16.26	20.65	0.01	7.71	1.197	261
53.152	16.28	20.67	0.01	7.70	1.197	261
53.184	16.29	20.68	0.00	7.70	1.197	261
53.216	16.29	20.69	0.00	7.70	1.197	261
53.248	16.29	20.69	0.01	7.70	1.197	261
53.280	16.29	20.68	0.01	7.70	1.197	261
53.312	16.28	20.67	0.00	7.70	1.197	261
53.344	16.26	20.65	0.00	7.70	1.197	261
53.376	16.24	20.63	0.01	7.70	1.197	261
53.408	16.22	20.62	0.00	7.70	1.197	261
53.440	16.22	20.62	0.01	7.70	1.197	261
53.472	16.23	20.62	0.01	7.70	1.197	261
53.504	16.24	20.63	0.01	7.70	1.197	261
53.536	16.26	20.65	0.00	7.70	1.197	261
53.568	16.27	20.66	0.00	7.70	1.197	261
53.600	16.27	20.67	0.01	7.70	1.197	261
53.632	16.28	20.67	0.01	7.70	1.197	261
53.664	16.29	20.69	0.00	7.70	1.197	261
53.696	16.30	20.69	0.01	7.70	1.197	261
53.728	16.31	20.71	0.01	7.70	1.197	261
53.760	16.32	20.71	0.01	7.70	1.197	261
53.792	16.31	20.70	0.01	7.70	1.197	261
53.824	16.29	20.69	0.01	7.70	1.197	261
53.856	16.27	20.67	0.01	7.70	1.197	261
53.888	16.26	20.65	0.01	7.70	1.197	261
53.920	16.24	20.63	0.01	7.70	1.197	261
53.952	16.21	20.60	0.01	7.70	1.197	261
53.984	16.21	20.60	0.01	7.70	1.197	261
54.016	16.23	20.62	0.01	7.70	1.197	261
54.048	16.26	20.65	0.01	7.70	1.197	261
54.080	16.30	20.69	0.01	7.70	1.197	261
54.112	16.33	20.73	0.01	7.70	1.197	261
54.144	16.36	20.75	0.00	7.70	1.193	260
54.176	16.38	20.78	0.00	7.70	1.193	260
54.208	16.40	20.80	0.01	7.70	1.193	260
54.240	16.41	20.80	0.01	7.70	1.193	260
54.272	16.41	20.80	0.01	7.70	1.193	260
54.304	16.40	20.79	0.01	7.70	1.193	260
54.336	16.39	20.79	0.01	7.70	1.193	260
54.368	16.38	20.77	0.01	7.70	1.193	260
54.400	16.36	20.75	0.01	7.70	1.193	260
54.432	16.34	20.74	0.01	7.70	1.193	260
54.464	16.34	20.73	0.01	7.70	1.193	260
54.496	16.33	20.72	0.01	7.70	1.193	260
54.528	16.34	20.73	0.01	7.70	1.193	260
54.560	16.34	20.74	0.01	7.70	1.193	260
54.592	16.36	20.75	0.01	7.70	1.197	261
54.624	16.36	20.76	0.01	7.70	1.197	261
54.656	16.36	20.76	0.01	7.70	1.197	261
54.688	16.36	20.75	0.01	7.70	1.197	261
54.720	16.34	20.74	0.01	7.70	1.197	261
54.752	16.33	20.72	0.01	7.70	1.197	261
54.784	16.32	20.71	0.01	7.70	1.197	261
54.816	16.31	20.70	0.01	7.70	1.197	261
54.848	16.30	20.69	0.01	7.71	1.197	261
54.880	16.28	20.67	0.01	7.71	1.197	261
54.912	16.28	20.67	0.01	7.70	1.197	261
54.944	16.28	20.67	0.01	7.70	1.197	261
54.976	16.28	20.68	0.01	7.70	1.197	261
55.008	16.30	20.69	0.01	7.71	1.197	261
55.040	16.31	20.70	0.01	7.71	1.197	261
55.072	16.33	20.72	0.01	7.70	1.197	261
55.104	16.34	20.74	0.01	7.70	1.197	261
55.136	16.36	20.75	0.01	7.70	1.197	261
55.168	16.37	20.76	0.01	7.70	1.197	261
55.200	16.37	20.77	0.01	7.70	1.197	261
55.232	16.37	20.76	0.01	7.70	1.197	261
55.264	16.37	20.76	0.00	7.70	1.197	261
55.296	16.36	20.75	0.01	7.70	1.197	261
55.328	16.35	20.74	0.01	7.70	1.197	261
55.360	16.33	20.72	0.01	7.70	1.197	261
55.392	16.32	20.72	0.01	7.70	1.197	261
55.424	16.33	20.72	0.01	7.70	1.197	261
55.456	16.35	20.74	0.01	7.70	1.197	261
55.488	16.36	20.75	0.01	7.70	1.197	261
55.520	16.37	20.77	0.01	7.71	1.197	261
55.552	16.40	20.80	0.01	7.70	1.202	262
55.584	16.41	20.81	0.01	7.70	1.202	262
55.616	16.42	20.81	0.01	7.70	1.202	262
55.648	16.41	20.80	0.01	7.70	1.202	262
55.680	16.40	20.79	0.01	7.70	1.202	262
55.712	16.38	20.77	0.01	7.70	1.202	262
55.744	16.36	20.75	0.01	7.70	1.202	262
55.776	16.34	20.73	0.01	7.70	1.202	262
55.808	16.30	20.70	0.01	7.70	1.202	262
55.840	16.29	20.68	0.01	7.70	1.202	262
55.872	16.28	20.68	0.01	7.70	1.202	262
55.904	16.29	20.69	0.00	7.70	1.202	262
55.936	16.31	20.70	0.01	7.70	1.202	262
55.968	16.34	20.73	0.00	7.70	1.202	262
56.000	16.36	20.75	0.01	7.70	1.197	261
56.032	16.37	20.76	0.00	7.70	1.197	261
56.064	16.38	20.77	0.00	7.70	1.197	261
56.096	16.39	20.78	0.01	7.70	1.197	261
56.128	16.39	20.78	0.01	7.70	1.197	261
56.160	16.37	20.77	0.01	7.71	1.197	261
56.192	16.36	20.75	0.01	7.70	1.197	261
56.224	16.36	20.75	0.01	7.70	1.197	261
56.256	16.35	20.74	0.01	7.70	1.197	261
56.288	16.34	20.73	0.01	7.70	1.197	261
56.320	16.33	20.72	0.01	7.70	1.197	261
56.352	16.34	20.73	0.01	7.70	1.197	261
56.384	16.34	20.73	0.01	7.70	1.197	261
56.416	16.35	20.74	0.01	7.70	1.197	261
56.448	16.36	20.75	0.01	7.70	1.197	261
56.480	16.36	20.75	0.01	7.70	1.197	261
56.512	16.37	20.76	0.00	7.70	1.197	261
56.544	16.37	20.77	0.01	7.70	1.197	261
56.576	16.37	20.76	0.01	7.70	1.197	261
56.608	16.36	20.75	0.01	7.70	1.197	261
56.640	16.35	20.74	0.01	7.70	1.197	261
56.672	16.34	20.74	0.01	7.70	1.197	261
56.704	16.34	20.73	0.01	7.70	1.197	261
56.736	16.33	20.73	0.01	7.70	1.197	261
56.768	16.33	20.72	0.02	7.71	1.197	261
56.800	16.34	20.73	0.01	7.70	1.197	261
56.832	16.35	20.74	0.01	7.70	1.197	261
56.864	16.37	20.77	0.01	7.70	1.197	261
56.896	16.40	20.79	0.01	7.70	1.197	261
56.928	16.43	20.82	0.01	7.70	1.197	261
56.960	16.46	20.85	0.01	7.71	1.197	261
56.992	16.48	20.87	0.01	7.70	1.197	261
57.024	16.49	20.88	0.00	7.70	1.197	261
57.056	16.48	20.87	0.01	7.70	1.197	261
57.088	16.46	20.86	0.01	7.70	1.197	261
57.120	16.45	20.84	0.02	7.71	1.197	261
57.152	16.44	20.83	0.01	7.70	1.197	261
57.184	16.43	20.82	0.01	7.71	1.197	261
57.216	16.41	20.80	0.01	7.70	1.197	261
57.248	16.40	20.79	0.01	7.70	1.197	261
57.280	16.40	20.79	0.01	7.70	1.197	261
57.312	16.41	20.80	0.01	7.70	1.197	261
57.344	16.42	20.82	0.00	7.70	1.197	261
57.376	16.44	20.84	0.01	7.70	1.197	261
57.408	16.46	20.85	0.01	7.70	1.202	262
57.440	16.47	20.86	0.01	7.70	1.202	262
57.472	16.46	20.86	0.01	7.70	1.202	262
57.504	16.45	20.85	0.01	7.70	1.202	262
57.536	16.44	20.83	0.01	7.70	1.202	262
57.568	16.42	20.82	0.01	7.70	1.202	262
57.600	16.41	20.80	0.01	7.70	1.202	262
57.632	16.41	20.80	0.00	7.70	1.202	262
57.664	16.40	20.79	0.01	7.70	1.202	262
57.696	16.39	20.78	0.01	7.70	1.202	262
57.728	16.39	20.78	0.00	7.70	1.202	262
57.760	16.40	20.79	0.01	7.70	1.202	262
57.792	16.41	20.81	0.01	7.70	1.202	262
57.824	16.43	20.82	0.01	7.71	1.202	262
57.856	16.45	20.84	0.01	7.70	1.202	262
57.888	16.46	20.85	0.01	7.71	1.202	262
57.920	16.47	20.86	0.01	7.70	1.202	262
57.952	16.46	20.85	0.00	7.70	1.202	262
57.984	16.44	20.83	0.00	7.70	1.202	262
58.016	16.41	20.81	0.01	7.70	1.202	262
58.048	16.39	20.78	0.01	7.70	1.202	262
58.080	16.37	20.76	0.01	7.70	1.202	262
58.112	16.34	20.73	0.01	7.70	1.202	262
58.144	16.31	20.70	0.01	7.70	1.202	262
58.176	16.30	20.69	0.01	7.70	1.202	262
58.208	16.31	20.70	0.01	7.70	1.202	262
58.240	16.32	20.71	0.01	7.70	1.202	262
58.272	16.34	20.74	0.00	7.70	1.202	262
58.304	16.37	20.77	0.01	7.70	1.202	262
58.336	16.41	20.80	0.01	7.70	1.202	262
58.368	16.44	20.84	0.01	7.71	1.202	262
58.400	16.46	20.85	0.01	7.70	1.202	262
58.432	16.46	20.85	0.01	7.70	1.202	262
58.464	16.45	20.84	0.01	7.70	1.202	262
58.496	16.43	20.82	0.01	7.70	1.202	262
58.528	16.41	20.81	0.01	7.71	1.202	262
58.560	16.39	20.79	0.01	7.70	1.202	262
58.592	16.37	20.76	0.01	7.70	1.202	262
58.624	16.35	20.74	0.01	7.70	1.202	262
58.656	16.34	20.73	0.01	7.70	1.202	262
58.688	16.34	20.74	0.01	7.70	1.202	262
58.720	16.36	20.75	0.01	7.70	1.202	262
58.752	16.38	20.77	0.01	7.70	1.202	262
58.784	16.41	20.80	0.00	7.70	1.202	262
58.816	16.44	20.83	0.01	7.70	1.197	261
58.848	16.48	20.87	0.01	7.70	1.197	261
58.880	16.50	20.90	0.01	7.71	1.197	261
58.912	16.50	20.90	0.01	7.70	1.197	261
58.944	16.50	20.89	0.01	7.70	1.197	261
58.976	16.48	20.88	0.01	7.70	1.197	261
59.008	16.47	20.86	0.01	7.71	1.197	261
59.040	16.45	20.84	0.01	7.70	1.197	261
59.072	16.42	20.82	0.00	7.70	1.197	261
59.104	16.41	20.80	0.01	7.70	1.197	261
59.136	16.40	20.79	0.01	7.70	1.197	261
59.168	16.40	20.79	0.01	7.71	1.197	261
59.200	16.40	20.80	0.01	7.70	1.197	261
59.232	16.41	20.80	0.01	7.70	1.197	261
59.264	16.41	20.81	0.01	7.71	1.197	261
59.296	16.42	20.81	0.01	7.71	1.202	262
59.328	16.42	20.82	0.01	7.70	1.202	262
59.360	16.42	20.81	0.01	7.70	1.202	262
59.392	16.41	20.80	0.01	7.70	1.202	262
59.424	16.40	20.79	0.00	7.70	1.202	262
59.456	16.39	20.78	0.01	7.70	1.202	262
59.488	16.38	20.78	0.02	7.71	1.202	262
59.520	16.36	20.76	0.01	7.70	1.202	262
59.552	16.34	20.73	0.01	7.70	1.202	262
59.584	16.31	20.70	0.01	7.70	1.202	262
59.616	16.28	20.67	0.01	7.70	1.202	262
59.648	16.26	20.65	0.01	7.70	1.202	262
59.680	16.26	20.65	0.01	7.70	1.202	262
59.712	16.27	20.66	0.01	7.70	1.202	262
59.744	16.28	20.68	0.01	7.70	1.202	262
59.776	16.30	20.69	0.01	7.70	1.202	262
59.808	16.31	20.70	0.01	7.70	1.202	262
59.840	16.32	20.71	0.00	7.70	1.202	262
59.872	16.32	20.72	0.00	7.70	1.202	262
59.904	16.31	20.71	0.01	7.70	1.202	262
59.936	16.31	20.70	0.01	7.70	1.202	262
59.968	16.30	20.70	0.01	7.70	1.202	262
60.000	16.29	20.69	0.01	7.70	1.202	262
60.032	16.28	20.68	0.00	7.70	1.202	262
60.064	16.28	20.68	0.01	7.70	1.202	262
60.096	16.29	20.69	0.01	7.70	1.202	262
60.128	16.29	20.69	0.01	7.71	1.202	262
60.160	16.30	20.70	0.01	7.70	1.202	262
60.192	16.32	20.71	0.00	7.70	1.202	262
60.224	16.32	20.71	0.01	7.70	1.211	264
60.256	16.32	20.72	0.01	7.70	1.211	264
60.288	16.32	20.71	0.01	7.70	1.211	264
60.320	16.30	20.70	0.01	7.70	1.211	264
60.352	16.29	20.68	0.01	7.70	1.211	264
60.384	16.27	20.66	0.01	7.70	1.211	264
60.416	16.26	20.65	0.01	7.70	1.211	264
60.448	16.24	20.63	0.01	7.71	1.211	264
60.480	16.22	20.61	0.01	7.70	1.211	264
60.512	16.20	20.59	0.00	7.70	1.211	264
60.544	16.20	20.59	0.01	7.70	1.211	264
60.576	16.20	20.59	0.01	7.70	1.211	264
60.608	16.22	20.61	0.01	7.71	1.211	264
60.640	16.24	20.63	0.01	7.70	1.211	264
60.672	16.26	20.66	0.01	7.70	1.211	264
60.704	16.29	20.68	0.01	7.70	1.211	264
60.736	16.30	20.69	0.01	7.70	1.211	264
60.768	16.31	20.70	0.01	7.71	1.211	264
60.800	16.30	20.69	0.01	7.70	1.211	264
60.832	16.29	20.69	0.01	7.70	1.211	264
60.864	16.29	20.68	0.01	7.71	1.211	264
60.896	16.29	20.68	0.01	7.70	1.211	264
60.928	16.29	20.68	0.00	7.70	1.211	264
60.960	16.28	20.68	0.00	7.70	1.211	264
60.992	16.29	20.68	0.01	7.70	1.211	264
61.024	16.30	20.69	0.01	7.70	1.211	264
61.056	16.32	20.71	0.01	7.70	1.211	264
61.088	16.35	20.74	0.01	7.70	1.211	264
61.120	16.39	20.78	0.01	7.70	1.211	264
61.152	16.42	20.82	0.00	7.70	1.206	263
61.184	16.45	20.85	0.01	7.70	1.206	263
61.216	16.47	20.86	0.01	7.70	1.206	263
61.248	16.47	20.86	0.01	7.71	1.206	263
61.280	16.46	20.85	0.01	7.70	1.206	263
61.312	16.44	20.83	0.00	7.70	1.206	263
61.344	16.43	20.82	0.01	7.70	1.206	263
61.376	16.41	20.81	0.01	7.70	1.206	263
61.408	16.40	20.80	0.01	7.70	1.206	263
61.440	16.41	20.80	0.01	7.70	1.206	263
61.472	16.42	20.82	0.01	7.70	1.206	263
61.504	16.45	20.84	0.01	7.70	1.206	263
61.536	16.47	20.87	0.01	7.70	1.206	263
61.568	16.49	20.88	0.01	7.70	1.206	263
61.600	16.51	20.90	0.01	7.70	1.206	263
61.632	16.51	20.91	0.01	7.70	1.211	264
61.664	16.52	20.92	0.01	7.70	1.211	264
61.696	16.53	20.92	0.01	7.70	1.211	264
61.728	16.52	20.92	0.00	7.70	1.211	264
61.760	16.52	20.91	0.01	7.70	1.211	264
61.792	16.52	20.91	0.01	7.70	1.211	264
61.824	16.21	20.60	0.01	7.70	1.211	264
61.856	14.94	19.33	0.01	7.70	1.211	264
61.888	12.75	17.14	0.01	7.70	1.211	264
61.920	10.17	14.56	0.01	7.70	1.211	264
61.952	7.71	12.10	0.01	7.70	1.211	264
61.984	5.67	10.07	0.01	7.70	1.211	264
62.016	4.03	8.43	0.01	7.70	1.211	264
62.048	2.66	7.05	0.01	7.70	1.211	264
62.080	1.47	5.86	0.01	7.70	0.679	148
62.112	0.47	4.86	0.01	7.70	0.679	148
62.144	-0.34	4.05	0.00	7.69	0.679	148
62.176	-0.96	3.43	-0.00	7.69	0.679	148
62.208	-1.44	2.95	0.00	7.69	0.679	148
62.240	-1.81	2.58	-0.00	7.69	0.679	148
62.272	-2.08	2.31	-0.00	7.69	0.679	148
62.304	-2.27	2.12	0.00	7.69	0.679	148
62.336	-2.39	2.00	0.00	7.70	0.679	148
62.368	-2.45	1.94	-0.00	7.69	0.679	148
62.400	-2.48	1.92	-0.00	7.69	0.679	148
62.432	-2.46	1.93	-0.00	7.69	0.679	148
62.464	-2.42	1.97	0.00	7.69	0.679	148
62.496	-2.37	2.02	0.00	7.70	0.679	148
62.528	-2.31	2.09	0.00	7.69	0.679	148
62.560	-2.24	2.15	-0.00	7.69	0.005	1
62.592	-2.17	2.22	-0.00	7.69	0.005	1
62.624	-2.11	2.28	0.00	7.69	0.005	1
62.656	-2.06	2.33	0.00	7.69	0.005	1
62.688	-2.02	2.38	0.00	7.69	0.005	1
62.720	-1.98	2.41	-0.01	7.69	0.005	1
62.752	-1.96	2.43	0.00	7.69	0.005	1
62.784	-1.95	2.44	0.00	7.69	0.005	1
62.816	-1.95	2.44	0.00	7.69	0.005	1
62.848	-1.95	2.44	0.00	7.69	0.005	1
62.880	-1.97	2.43	-0.00	7.69	0.005	1
62.912	-1.98	2.41	-0.00	7.69	0.005	1
62.944	-1.99	2.40	0.00	7.70	0.005	1
62.976	-2.03	2.37	0.00	7.70	0.005	1
63.008	-2.05	2.34	0.00	7.69	0.005	1
63.040	-2.06	2.33	0.00	7.69	0.000	0
63.072	-2.08	2.31	-0.00	7.69	0.000	0
63.104	-2.11	2.28	0.00	7.70	0.000	0
63.136	-2.13	2.26	-0.00	7.69	0.000	0
63.168	-2.14	2.25	0.00	7.70	0.000	0
63.200	-2.15	2.24	0.00	7.69	0.000	0
63.232	-2.16	2.23	-0.00	7.69	0.000	0
63.264	-2.18	2.22	0.00	7.69	0.000	0
63.296	-2.18	2.21	0.00	7.69	0.000	0
63.328	-2.18	2.21	-0.00	7.69	0.000	0
63.360	-2.19	2.20	-0.00	7.69	0.000	0
63.392	-2.19	2.20	0.00	7.69	0.000	0
63.424	-2.18	2.21	0.00	7.69	0.000	0
63.456	-2.19	2.20	0.00	7.70	0.000	0
63.488	-2.18	2.21	-0.00	7.69	0.000	0
63.520	-2.18	2.21	0.00	7.70	0.000	0
63.552	-2.17	2.22	-0.00	7.69	0.000	0
63.584	-2.17	2.22	0.00	7.69	0.000	0
63.616	-2.17	2.23	0.00	7.69	0.000	0
63.648	-2.16	2.23	-0.00	7.69	0.000	0
63.680	-2.17	2.23	-0.00	7.69	0.000	0
63.712	-2.16	2.23	0.00	7.69	0.000	0
