Tempo(s)    P0(KPa) P0+Coluna(KPa)  P1(KPa) P1+Coluna(KPa)
0.032	-2.22	-2.22	-2.22	-2.22
0.064	10.15	10.15	-2.22	-2.22
0.096	10.15	10.15	7.60	7.60
0.128	10.15	10.15	7.60	7.60
0.160	10.16	10.16	7.60	7.60
0.192	10.16	10.16	7.57	7.57
0.224	10.16	10.16	7.57	7.57
0.256	10.16	10.16	7.57	7.57
0.288	10.16	10.16	7.61	7.61
0.320	10.16	10.16	7.61	7.61
0.352	10.16	10.16	7.61	7.61
0.384	10.16	10.16	7.57	7.57
0.416	10.16	10.16	7.57	7.57
0.448	10.17	10.17	7.57	7.57
0.480	10.17	10.17	7.55	7.55
0.512	10.17	10.17	7.55	7.55
0.544	10.18	10.18	7.55	7.55
0.576	10.18	10.18	7.65	7.65
0.608	10.18	10.18	7.65	7.65
0.640	10.18	10.18	7.65	7.65
0.672	-0.00	10.18	-0.09	7.55
0.704	-0.00	10.18	-0.09	7.55
0.736	-0.00	10.17	-0.09	7.55
0.768	-0.00	10.17	-0.04	7.61
0.800	-0.00	10.17	-0.04	7.61
0.832	-0.00	10.18	-0.04	7.61
0.864	-0.00	10.18	-0.02	7.63
0.896	-0.00	10.18	-0.02	7.63
0.928	-0.00	10.17	-0.02	7.63
0.960	-0.00	10.17	-0.11	7.54
0.992	-0.00	10.17	-0.11	7.54
1.024	-0.00	10.18	-0.11	7.54
1.056	-0.00	10.18	0.00	7.65
1.088	-0.00	10.18	0.00	7.65
1.120	-0.00	10.18	0.00	7.65
1.152	-0.00	10.18	-0.09	7.55
1.184	-0.00	10.18	-0.09	7.55
1.216	-0.00	10.18	-0.09	7.55
1.248	-0.00	10.18	-0.04	7.60
1.280	-0.00	10.18	-0.04	7.60
1.312	-0.00	10.18	-0.04	7.60
1.344	-0.00	10.18	-0.01	7.63
1.376	-0.00	10.18	-0.01	7.63
1.408	0.00	10.18	-0.01	7.63
1.440	0.00	10.18	-0.11	7.53
1.472	0.00	10.18	-0.11	7.53
1.504	0.00	10.18	-0.11	7.53
1.536	0.00	10.18	-0.00	7.65
1.568	0.00	10.18	-0.00	7.65
1.600	0.00	10.18	-0.00	7.65
1.632	0.00	10.18	-0.09	7.56
1.664	0.00	10.18	-0.09	7.56
1.696	0.00	10.18	-0.09	7.56
1.728	0.00	10.18	-0.05	7.60
1.760	0.00	10.18	-0.05	7.60
1.792	-0.00	10.18	-0.05	7.60
1.824	-0.00	10.18	-0.01	7.64
1.856	-0.00	10.18	-0.01	7.64
1.888	0.00	10.18	-0.01	7.64
1.920	0.00	10.18	-0.11	7.54
1.952	0.00	10.18	-0.11	7.54
1.984	0.00	10.18	-0.11	7.54
2.016	0.00	10.18	-0.01	7.64
2.048	0.00	10.18	-0.01	7.64
2.080	-0.00	10.18	-0.01	7.64
2.112	-0.00	10.18	-0.09	7.56
2.144	-0.00	10.18	-0.09	7.56
2.176	-0.00	10.18	-0.09	7.56
2.208	-0.00	10.18	-0.06	7.59
2.240	-0.00	10.18	-0.06	7.59
2.272	0.02	10.20	-0.06	7.59
2.304	0.02	10.20	-0.01	7.63
2.336	0.02	10.20	-0.01	7.63
2.368	0.03	10.20	-0.01	7.63
2.400	0.03	10.20	-0.12	7.53
2.432	0.03	10.20	-0.12	7.53
2.464	0.02	10.20	-0.12	7.53
2.496	0.02	10.20	-0.02	7.62
2.528	0.02	10.20	-0.02	7.62
2.560	0.02	10.20	-0.02	7.62
2.592	0.02	10.20	-0.09	7.55
2.624	0.02	10.20	-0.09	7.55
2.656	0.03	10.20	-0.09	7.55
2.688	0.03	10.20	-0.06	7.58
2.720	0.03	10.20	-0.06	7.58
2.752	0.02	10.19	-0.06	7.58
2.784	0.02	10.19	-0.03	7.62
2.816	0.02	10.19	-0.03	7.62
2.848	0.02	10.20	-0.03	7.62
2.880	0.02	10.20	-0.12	7.53
2.912	0.02	10.20	-0.12	7.53
2.944	0.02	10.20	-0.12	7.53
2.976	0.02	10.20	-0.01	7.64
3.008	0.02	10.20	-0.01	7.64
3.040	0.02	10.20	-0.01	7.64
3.072	0.02	10.20	-0.09	7.56
3.104	0.02	10.20	-0.09	7.56
3.136	0.02	10.20	-0.09	7.56
3.168	0.02	10.20	-0.07	7.58
3.200	0.02	10.20	-0.07	7.58
3.232	0.02	10.20	-0.07	7.58
3.264	0.02	10.20	-0.01	7.64
3.296	0.02	10.20	-0.01	7.64
3.328	0.03	10.20	-0.01	7.64
3.360	0.03	10.20	-0.11	7.54
3.392	0.03	10.20	-0.11	7.54
3.424	0.01	10.19	-0.11	7.54
3.456	0.01	10.19	-0.02	7.63
3.488	0.01	10.19	-0.02	7.63
3.520	0.02	10.20	-0.02	7.63
3.552	0.02	10.20	-0.08	7.57
3.584	0.02	10.20	-0.08	7.57
3.616	0.02	10.20	-0.08	7.57
3.648	0.02	10.20	-0.08	7.57
3.680	0.02	10.20	-0.08	7.57
3.712	0.01	10.19	-0.08	7.57
3.744	0.01	10.19	-0.01	7.64
3.776	0.01	10.19	-0.01	7.64
3.808	0.02	10.20	-0.01	7.64
3.840	0.02	10.20	-0.11	7.53
3.872	0.02	10.20	-0.11	7.53
3.904	0.02	10.19	-0.11	7.53
3.936	0.02	10.19	-0.02	7.63
3.968	0.02	10.19	-0.02	7.63
4.000	0.01	10.19	-0.02	7.63
4.032	0.01	10.19	-0.08	7.57
4.064	0.01	10.19	-0.08	7.57
4.096	0.02	10.20	-0.08	7.57
4.128	0.02	10.20	-0.09	7.56
4.160	0.02	10.20	-0.09	7.56
4.192	0.01	10.19	-0.09	7.56
4.224	0.01	10.19	-0.01	7.64
4.256	0.01	10.19	-0.01	7.64
4.288	0.03	10.20	-0.01	7.64
4.320	0.03	10.20	-0.11	7.54
4.352	0.03	10.20	-0.11	7.54
4.384	0.02	10.20	-0.11	7.54
4.416	0.02	10.20	-0.02	7.63
4.448	0.02	10.20	-0.02	7.63
4.480	0.03	10.21	-0.02	7.63
4.512	0.03	10.21	-0.07	7.58
4.544	0.03	10.21	-0.07	7.58
4.576	0.03	10.21	-0.07	7.58
4.608	0.03	10.21	-0.10	7.55
4.640	0.03	10.21	-0.10	7.55
4.672	0.03	10.20	-0.10	7.55
4.704	0.03	10.20	-0.00	7.64
4.736	0.03	10.20	-0.00	7.64
4.768	0.03	10.21	-0.00	7.64
4.800	0.03	10.21	-0.11	7.54
4.832	0.03	10.21	-0.11	7.54
4.864	0.03	10.20	-0.11	7.54
4.896	0.03	10.20	-0.03	7.62
4.928	0.03	10.20	-0.03	7.62
4.960	0.03	10.20	-0.03	7.62
4.992	0.03	10.20	-0.07	7.58
5.024	0.03	10.20	-0.07	7.58
5.056	0.03	10.21	-0.07	7.58
5.088	0.03	10.21	-0.10	7.55
5.120	0.03	10.21	-0.10	7.55
5.152	0.03	10.21	-0.10	7.55
5.184	0.03	10.21	-0.01	7.64
5.216	0.03	10.21	-0.01	7.64
5.248	0.03	10.21	-0.01	7.64
5.280	0.03	10.21	-0.11	7.54
5.312	0.03	10.21	-0.11	7.54
5.344	0.03	10.20	-0.11	7.54
5.376	0.03	10.20	-0.02	7.62
5.408	0.03	10.20	-0.02	7.62
5.440	0.04	10.21	-0.02	7.62
5.472	0.04	10.21	-0.06	7.59
5.504	0.04	10.21	-0.06	7.59
5.536	0.03	10.21	-0.06	7.59
5.568	0.03	10.21	-0.10	7.55
5.600	0.03	10.21	-0.10	7.55
5.632	0.03	10.21	-0.10	7.55
5.664	0.03	10.21	-0.01	7.64
5.696	0.03	10.21	-0.01	7.64
5.728	0.03	10.21	-0.01	7.64
5.760	0.03	10.21	-0.10	7.55
5.792	0.03	10.21	-0.10	7.55
5.824	0.35	10.52	-0.10	7.55
5.856	0.35	10.52	-0.02	7.62
5.888	0.35	10.52	-0.02	7.62
5.920	28.19	38.37	-0.02	7.62
5.952	28.19	38.37	0.48	8.13
5.984	28.19	38.37	0.48	8.13
6.016	35.75	45.93	0.48	8.13
6.048	35.75	45.93	-0.10	7.55
6.080	35.75	45.93	-0.10	7.55
6.112	26.24	36.42	-0.10	7.55
6.144	26.24	36.42	0.00	7.65
6.176	26.24	36.42	0.00	7.65
6.208	26.48	36.66	0.00	7.65
6.240	26.48	36.66	-0.09	7.55
6.272	26.48	36.66	-0.09	7.55
6.304	27.74	37.92	-0.09	7.55
6.336	27.74	37.92	-0.03	7.62
6.368	27.74	37.92	-0.03	7.62
6.400	27.63	37.81	-0.03	7.62
6.432	27.63	37.81	-0.04	7.61
6.464	27.63	37.81	-0.04	7.61
6.496	27.49	37.67	-0.04	7.61
6.528	27.49	37.67	-0.11	7.54
6.560	27.49	37.67	-0.11	7.54
6.592	27.54	37.72	-0.11	7.54
6.624	27.54	37.72	0.00	7.65
6.656	27.54	37.72	0.00	7.65
6.688	27.44	37.62	0.00	7.65
6.720	27.44	37.62	-0.09	7.56
6.752	27.44	37.62	-0.09	7.56
6.784	27.57	37.75	-0.09	7.56
6.816	27.57	37.75	-0.03	7.62
6.848	27.57	37.75	-0.03	7.62
6.880	27.68	37.85	-0.03	7.62
6.912	27.68	37.85	-0.03	7.62
6.944	27.68	37.85	-0.03	7.62
6.976	27.55	37.72	-0.03	7.62
7.008	27.55	37.72	-0.11	7.54
7.040	27.55	37.72	-0.11	7.54
7.072	27.66	37.83	-0.11	7.54
7.104	27.66	37.83	-0.00	7.65
7.136	27.66	37.83	-0.00	7.65
7.168	27.57	37.75	-0.00	7.65
7.200	27.57	37.75	-0.09	7.56
7.232	27.57	37.75	-0.09	7.56
7.264	27.52	37.69	-0.09	7.56
7.296	27.52	37.69	-0.04	7.61
7.328	27.52	37.69	-0.04	7.61
7.360	27.64	37.82	-0.04	7.61
7.392	27.64	37.82	-0.02	7.62
7.424	27.64	37.82	-0.02	7.62
7.456	27.58	37.76	-0.02	7.62
7.488	27.58	37.76	-0.11	7.54
7.520	27.58	37.76	-0.11	7.54
7.552	27.80	37.98	-0.11	7.54
7.584	27.80	37.98	-0.01	7.64
7.616	27.80	37.98	-0.01	7.64
7.648	27.60	37.78	-0.01	7.64
7.680	27.60	37.78	-0.09	7.56
7.712	27.60	37.78	-0.09	7.56
7.744	27.73	37.91	-0.09	7.56
7.776	27.73	37.91	-0.05	7.60
7.808	27.73	37.91	-0.05	7.60
7.840	27.71	37.89	-0.05	7.60
7.872	27.71	37.89	-0.01	7.63
7.904	27.71	37.89	-0.01	7.63
7.936	27.70	37.88	-0.01	7.63
7.968	27.70	37.88	-0.11	7.54
8.000	27.70	37.88	-0.11	7.54
8.032	27.75	37.92	-0.11	7.54
8.064	27.75	37.92	-0.01	7.64
8.096	27.75	37.92	-0.01	7.64
8.128	27.48	37.66	-0.01	7.64
8.160	27.48	37.66	-0.09	7.56
8.192	27.48	37.66	-0.09	7.56
8.224	27.53	37.71	-0.09	7.56
8.256	27.53	37.71	-0.06	7.59
8.288	27.53	37.71	-0.06	7.59
8.320	27.52	37.70	-0.06	7.59
8.352	27.52	37.70	-0.01	7.64
8.384	27.52	37.70	-0.01	7.64
8.416	27.64	37.82	-0.01	7.64
8.448	27.64	37.82	-0.11	7.53
8.480	27.64	37.82	-0.11	7.53
8.512	27.53	37.71	-0.11	7.53
8.544	27.53	37.71	-0.01	7.63
8.576	27.53	37.71	-0.01	7.63
8.608	27.52	37.70	-0.01	7.63
8.640	27.52	37.70	-0.09	7.56
8.672	27.52	37.70	-0.09	7.56
8.704	27.75	37.93	-0.09	7.56
8.736	27.75	37.93	-0.07	7.58
8.768	27.75	37.93	-0.07	7.58
8.800	27.68	37.86	-0.07	7.58
8.832	27.68	37.86	-0.01	7.64
8.864	27.68	37.86	-0.01	7.64
8.896	27.74	37.92	-0.01	7.64
8.928	27.74	37.92	-0.11	7.54
8.960	27.74	37.92	-0.11	7.54
8.992	27.68	37.85	-0.11	7.54
9.024	27.68	37.85	-0.02	7.63
9.056	27.68	37.85	-0.02	7.63
9.088	27.52	37.69	-0.02	7.63
9.120	27.52	37.69	-0.07	7.57
9.152	27.52	37.69	-0.07	7.57
9.184	27.64	37.81	-0.07	7.57
9.216	27.64	37.81	-0.08	7.57
9.248	27.64	37.81	-0.08	7.57
9.280	27.53	37.71	-0.08	7.57
9.312	27.53	37.71	-0.00	7.64
9.344	27.53	37.71	-0.00	7.64
9.376	27.55	37.73	-0.00	7.64
9.408	27.55	37.73	-0.11	7.54
9.440	27.55	37.73	-0.11	7.54
9.472	27.60	37.78	-0.11	7.54
9.504	27.60	37.78	-0.02	7.63
9.536	27.60	37.78	-0.02	7.63
9.568	27.60	37.78	-0.02	7.63
9.600	27.60	37.78	-0.07	7.58
9.632	27.60	37.78	-0.07	7.58
9.664	27.59	37.77	-0.07	7.58
9.696	27.59	37.77	-0.09	7.56
9.728	27.59	37.77	-0.09	7.56
9.760	27.50	37.68	-0.09	7.56
9.792	27.50	37.68	-0.00	7.64
9.824	27.50	37.68	-0.00	7.64
9.856	27.80	37.98	-0.00	7.64
9.888	27.80	37.98	-0.10	7.55
9.920	27.80	37.98	-0.10	7.55
9.952	27.72	37.90	-0.10	7.55
9.984	27.72	37.90	-0.02	7.63
10.016	27.72	37.90	-0.02	7.63
10.048	27.67	37.85	-0.02	7.63
10.080	27.67	37.85	-0.06	7.59
10.112	27.67	37.85	-0.06	7.59
10.144	27.71	37.88	-0.06	7.59
10.176	27.71	37.88	-0.10	7.55
10.208	27.71	37.88	-0.10	7.55
10.240	27.60	37.78	-0.10	7.55
10.272	27.60	37.78	0.00	7.65
10.304	27.60	37.78	0.00	7.65
10.336	27.68	37.85	0.00	7.65
10.368	27.68	37.85	-0.10	7.55
10.400	27.68	37.85	-0.10	7.55
10.432	27.60	37.77	-0.10	7.55
10.464	27.60	37.77	-0.02	7.63
10.496	27.60	37.77	-0.02	7.63
10.528	27.64	37.82	-0.02	7.63
10.560	27.64	37.82	-0.05	7.60
10.592	27.64	37.82	-0.05	7.60
10.624	27.75	37.93	-0.05	7.60
10.656	27.75	37.93	-0.10	7.54
10.688	27.75	37.93	-0.10	7.54
10.720	27.66	37.84	-0.10	7.54
10.752	27.66	37.84	0.00	7.65
10.784	27.66	37.84	0.00	7.65
10.816	27.80	37.98	0.00	7.65
10.848	27.80	37.98	-0.10	7.55
10.880	27.80	37.98	-0.10	7.55
10.912	27.68	37.85	-0.10	7.55
10.944	27.68	37.85	-0.03	7.62
10.976	27.68	37.85	-0.03	7.62
11.008	27.79	37.97	-0.03	7.62
11.040	27.79	37.97	-0.04	7.61
11.072	27.79	37.97	-0.04	7.61
11.104	27.73	37.91	-0.04	7.61
11.136	27.73	37.91	-0.10	7.54
11.168	27.73	37.91	-0.10	7.54
11.200	27.61	37.79	-0.10	7.54
11.232	27.61	37.79	0.00	7.65
11.264	27.61	37.79	0.00	7.65
11.296	27.64	37.82	0.00	7.65
11.328	27.64	37.82	-0.09	7.56
11.360	27.64	37.82	-0.09	7.56
11.392	27.65	37.83	-0.09	7.56
11.424	27.65	37.83	-0.04	7.61
11.456	27.65	37.83	-0.04	7.61
11.488	27.63	37.80	-0.04	7.61
11.520	27.63	37.80	-0.02	7.63
11.552	27.63	37.80	-0.02	7.63
11.584	27.63	37.81	-0.02	7.63
11.616	27.63	37.81	-0.11	7.54
11.648	27.63	37.81	-0.11	7.54
11.680	27.63	37.81	-0.11	7.54
11.712	27.63	37.81	-0.00	7.64
11.744	27.63	37.81	-0.00	7.64
11.776	27.80	37.97	-0.00	7.64
11.808	27.80	37.97	-0.09	7.56
11.840	27.80	37.97	-0.09	7.56
11.872	27.69	37.87	-0.09	7.56
11.904	27.69	37.87	-0.04	7.60
11.936	27.69	37.87	-0.04	7.60
11.968	27.66	37.83	-0.04	7.60
12.000	27.66	37.83	-0.02	7.63
12.032	27.66	37.83	-0.02	7.63
12.064	27.72	37.90	-0.02	7.63
12.096	27.72	37.90	-0.11	7.54
12.128	27.72	37.90	-0.11	7.54
12.160	27.61	37.79	-0.11	7.54
12.192	27.61	37.79	-0.01	7.64
12.224	27.61	37.79	-0.01	7.64
12.256	27.71	37.89	-0.01	7.64
12.288	27.71	37.89	-0.09	7.56
12.320	27.71	37.89	-0.09	7.56
12.352	27.57	37.75	-0.09	7.56
12.384	27.57	37.75	-0.06	7.59
12.416	27.57	37.75	-0.06	7.59
12.448	27.67	37.85	-0.06	7.59
12.480	27.67	37.85	-0.01	7.64
12.512	27.67	37.85	-0.01	7.64
12.544	27.71	37.88	-0.01	7.64
12.576	27.71	37.88	-0.11	7.54
12.608	27.71	37.88	-0.11	7.54
12.640	27.66	37.83	-0.11	7.54
12.672	27.66	37.83	-0.01	7.64
12.704	27.66	37.83	-0.01	7.64
12.736	27.67	37.85	-0.01	7.64
12.768	27.67	37.85	-0.09	7.56
12.800	27.67	37.85	-0.09	7.56
12.832	27.59	37.76	-0.09	7.56
12.864	27.59	37.76	-0.07	7.58
12.896	27.59	37.76	-0.07	7.58
12.928	27.62	37.80	-0.07	7.58
12.960	27.62	37.80	-0.01	7.64
12.992	27.62	37.80	-0.01	7.64
13.024	27.78	37.96	-0.01	7.64
13.056	27.78	37.96	-0.11	7.54
13.088	27.78	37.96	-0.11	7.54
13.120	27.63	37.81	-0.11	7.54
13.152	27.63	37.81	-0.02	7.63
13.184	27.63	37.81	-0.02	7.63
13.216	27.72	37.90	-0.02	7.63
13.248	27.72	37.90	-0.08	7.57
13.280	27.72	37.90	-0.08	7.57
13.312	27.57	37.75	-0.08	7.57
13.344	27.57	37.75	-0.08	7.57
13.376	27.57	37.75	-0.08	7.57
13.408	27.64	37.82	-0.08	7.57
13.440	27.64	37.82	0.00	7.65
13.472	27.64	37.82	0.00	7.65
13.504	27.74	37.91	0.00	7.65
13.536	27.74	37.91	-0.11	7.54
13.568	27.74	37.91	-0.11	7.54
13.600	27.69	37.87	-0.11	7.54
13.632	27.69	37.87	-0.02	7.63
13.664	27.69	37.87	-0.02	7.63
13.696	27.82	38.00	-0.02	7.63
13.728	27.82	38.00	-0.07	7.58
13.760	27.82	38.00	-0.07	7.58
13.792	27.64	37.82	-0.07	7.58
13.824	27.64	37.82	-0.09	7.56
13.856	27.64	37.82	-0.09	7.56
13.888	27.65	37.83	-0.09	7.56
13.920	27.65	37.83	-0.00	7.65
13.952	27.65	37.83	-0.00	7.65
13.984	27.71	37.89	-0.00	7.65
14.016	27.71	37.89	-0.10	7.54
14.048	27.71	37.89	-0.10	7.54
14.080	27.64	37.82	-0.10	7.54
14.112	27.64	37.82	-0.02	7.63
14.144	27.64	37.82	-0.02	7.63
14.176	27.63	37.81	-0.02	7.63
14.208	27.63	37.81	-0.05	7.59
14.240	27.63	37.81	-0.05	7.59
14.272	27.66	37.84	-0.05	7.59
14.304	27.66	37.84	-0.10	7.55
14.336	27.66	37.84	-0.10	7.55
14.368	27.73	37.91	-0.10	7.55
14.400	27.73	37.91	0.00	7.65
14.432	27.73	37.91	0.00	7.65
14.464	27.76	37.94	0.00	7.65
14.496	27.76	37.94	-0.10	7.55
14.528	27.76	37.94	-0.10	7.55
14.560	27.72	37.90	-0.10	7.55
14.592	27.72	37.90	-0.02	7.63
14.624	27.72	37.90	-0.02	7.63
14.656	27.76	37.94	-0.02	7.63
14.688	27.76	37.94	-0.04	7.60
14.720	27.76	37.94	-0.04	7.60
14.752	27.68	37.86	-0.04	7.60
14.784	27.68	37.86	-0.10	7.55
14.816	27.68	37.86	-0.10	7.55
14.848	27.76	37.94	-0.10	7.55
14.880	27.76	37.94	0.00	7.65
14.912	27.76	37.94	0.00	7.65
14.944	27.75	37.93	0.00	7.65
14.976	27.75	37.93	-0.09	7.55
15.008	27.75	37.93	-0.09	7.55
15.040	27.69	37.87	-0.09	7.55
15.072	27.69	37.87	-0.03	7.62
15.104	27.69	37.87	-0.03	7.62
15.136	27.77	37.95	-0.03	7.62
15.168	27.77	37.95	-0.04	7.61
15.200	27.77	37.95	-0.04	7.61
15.232	27.72	37.90	-0.04	7.61
15.264	27.72	37.90	-0.11	7.54
15.296	27.72	37.90	-0.11	7.54
15.328	27.67	37.85	-0.11	7.54
15.360	27.67	37.85	0.00	7.65
15.392	27.67	37.85	0.00	7.65
15.424	27.68	37.86	0.00	7.65
15.456	27.68	37.86	-0.09	7.56
15.488	27.68	37.86	-0.09	7.56
15.520	27.90	38.08	-0.09	7.56
15.552	27.90	38.08	-0.03	7.62
15.584	27.90	38.08	-0.03	7.62
15.616	27.82	38.00	-0.03	7.62
15.648	27.82	38.00	-0.03	7.62
15.680	27.82	38.00	-0.03	7.62
15.712	27.70	37.87	-0.03	7.62
15.744	27.70	37.87	-0.11	7.54
15.776	27.70	37.87	-0.11	7.54
15.808	27.76	37.94	-0.11	7.54
15.840	27.76	37.94	-0.00	7.65
15.872	27.76	37.94	-0.00	7.65
15.904	27.64	37.82	-0.00	7.65
15.936	27.64	37.82	-0.09	7.55
15.968	27.64	37.82	-0.09	7.55
16.000	27.67	37.85	-0.09	7.55
16.032	27.67	37.85	-0.04	7.60
16.064	27.67	37.85	-0.04	7.60
16.096	27.67	37.85	-0.04	7.60
16.128	27.67	37.85	-0.02	7.63
16.160	27.67	37.85	-0.02	7.63
16.192	27.72	37.90	-0.02	7.63
16.224	27.72	37.90	-0.11	7.54
16.256	27.72	37.90	-0.11	7.54
16.288	27.66	37.84	-0.11	7.54
16.320	27.66	37.84	-0.01	7.64
16.352	27.66	37.84	-0.01	7.64
16.384	27.87	38.05	-0.01	7.64
16.416	27.87	38.05	-0.09	7.56
16.448	27.87	38.05	-0.09	7.56
16.480	27.91	38.09	-0.09	7.56
16.512	27.91	38.09	-0.05	7.59
16.544	27.91	38.09	-0.05	7.59
16.576	27.76	37.94	-0.05	7.59
16.608	27.76	37.94	-0.01	7.63
16.640	27.76	37.94	-0.01	7.63
16.672	27.77	37.95	-0.01	7.63
16.704	27.77	37.95	-0.11	7.54
16.736	27.77	37.95	-0.11	7.54
16.768	27.77	37.95	-0.11	7.54
16.800	27.77	37.95	-0.01	7.64
16.832	27.77	37.95	-0.01	7.64
16.864	27.82	37.99	-0.01	7.64
16.896	27.82	37.99	-0.09	7.55
16.928	27.82	37.99	-0.09	7.55
16.960	27.66	37.84	-0.09	7.55
16.992	27.66	37.84	-0.06	7.58
17.024	27.66	37.84	-0.06	7.58
17.056	27.84	38.02	-0.06	7.58
17.088	27.84	38.02	-0.01	7.64
17.120	27.84	38.02	-0.01	7.64
17.152	27.72	37.89	-0.01	7.64
17.184	27.72	37.89	-0.11	7.53
17.216	27.72	37.89	-0.11	7.53
17.248	27.72	37.90	-0.11	7.53
17.280	27.72	37.90	-0.01	7.64
17.312	27.72	37.90	-0.01	7.64
17.344	27.75	37.93	-0.01	7.64
17.376	27.75	37.93	-0.08	7.57
17.408	27.75	37.93	-0.08	7.57
17.440	27.89	38.06	-0.08	7.57
17.472	27.89	38.06	-0.07	7.58
17.504	27.89	38.06	-0.07	7.58
17.536	27.89	38.07	-0.07	7.58
17.568	27.89	38.07	-0.01	7.64
17.600	27.89	38.07	-0.01	7.64
17.632	27.79	37.97	-0.01	7.64
17.664	27.79	37.97	-0.12	7.53
17.696	27.79	37.97	-0.12	7.53
17.728	27.89	38.07	-0.12	7.53
17.760	27.89	38.07	-0.02	7.62
17.792	27.89	38.07	-0.02	7.62
17.824	27.81	37.99	-0.02	7.62
17.856	27.81	37.99	-0.08	7.57
17.888	27.81	37.99	-0.08	7.57
17.920	27.90	38.08	-0.08	7.57
17.952	27.90	38.08	-0.09	7.56
17.984	27.90	38.08	-0.09	7.56
18.016	27.82	37.99	-0.09	7.56
18.048	27.82	37.99	-0.01	7.64
18.080	27.82	37.99	-0.01	7.64
18.112	27.79	37.97	-0.01	7.64
18.144	27.79	37.97	-0.11	7.53
18.176	27.79	37.97	-0.11	7.53
18.208	27.80	37.98	-0.11	7.53
18.240	27.80	37.98	-0.02	7.62
18.272	27.80	37.98	-0.02	7.62
18.304	27.80	37.97	-0.02	7.62
18.336	27.80	37.97	-0.08	7.57
18.368	27.80	37.97	-0.08	7.57
18.400	27.96	38.14	-0.08	7.57
18.432	27.96	38.14	-0.10	7.55
18.464	27.96	38.14	-0.10	7.55
18.496	27.81	37.99	-0.10	7.55
18.528	27.81	37.99	-0.01	7.64
18.560	27.81	37.99	-0.01	7.64
18.592	27.82	38.00	-0.01	7.64
18.624	27.82	38.00	-0.11	7.54
18.656	27.82	38.00	-0.11	7.54
18.688	27.91	38.09	-0.11	7.54
18.720	27.91	38.09	-0.02	7.62
18.752	27.91	38.09	-0.02	7.62
18.784	27.78	37.96	-0.02	7.62
18.816	27.78	37.96	-0.07	7.58
18.848	27.78	37.96	-0.07	7.58
18.880	27.87	38.05	-0.07	7.58
18.912	27.87	38.05	-0.10	7.55
18.944	27.87	38.05	-0.10	7.55
18.976	27.87	38.04	-0.10	7.55
19.008	27.87	38.04	-0.01	7.64
19.040	27.87	38.04	-0.01	7.64
19.072	27.81	37.99	-0.01	7.64
19.104	27.81	37.99	-0.11	7.54
19.136	27.81	37.99	-0.11	7.54
19.168	27.81	37.99	-0.11	7.54
19.200	27.81	37.99	-0.02	7.62
19.232	27.81	37.99	-0.02	7.62
19.264	27.88	38.05	-0.02	7.62
19.296	27.88	38.05	-0.06	7.59
19.328	27.88	38.05	-0.06	7.59
19.360	28.02	38.20	-0.06	7.59
19.392	28.02	38.20	-0.11	7.54
19.424	28.02	38.20	-0.11	7.54
19.456	27.89	38.06	-0.11	7.54
19.488	27.89	38.06	-0.00	7.64
19.520	27.89	38.06	-0.00	7.64
19.552	27.95	38.13	-0.00	7.64
19.584	27.95	38.13	-0.11	7.54
19.616	27.95	38.13	-0.11	7.54
19.648	28.00	38.18	-0.11	7.54
19.680	28.00	38.18	-0.03	7.62
19.712	28.00	38.18	-0.03	7.62
19.744	27.86	38.04	-0.03	7.62
19.776	27.86	38.04	-0.05	7.60
19.808	27.86	38.04	-0.05	7.60
19.840	27.86	38.04	-0.05	7.60
19.872	27.86	38.04	-0.11	7.54
19.904	27.86	38.04	-0.11	7.54
19.936	27.94	38.12	-0.11	7.54
19.968	27.94	38.12	0.00	7.65
20.000	27.94	38.12	0.00	7.65
20.032	27.90	38.08	0.00	7.65
20.064	27.90	38.08	-0.10	7.55
20.096	27.90	38.08	-0.10	7.55
20.128	28.00	38.18	-0.10	7.55
20.160	28.00	38.18	-0.04	7.61
20.192	28.00	38.18	-0.04	7.61
20.224	28.05	38.23	-0.04	7.61
20.256	28.05	38.23	-0.04	7.60
20.288	28.05	38.23	-0.04	7.60
20.320	27.99	38.17	-0.04	7.60
20.352	27.99	38.17	-0.11	7.54
20.384	27.99	38.17	-0.11	7.54
20.416	27.82	38.00	-0.11	7.54
20.448	27.82	38.00	-0.01	7.64
20.480	27.82	38.00	-0.01	7.64
20.512	27.82	38.00	-0.01	7.64
20.544	27.82	38.00	-0.10	7.55
20.576	27.82	38.00	-0.10	7.55
20.608	27.91	38.09	-0.10	7.55
20.640	27.91	38.09	-0.04	7.61
20.672	27.91	38.09	-0.04	7.61
20.704	27.74	37.92	-0.04	7.61
20.736	27.74	37.92	-0.04	7.61
20.768	27.74	37.92	-0.04	7.61
20.800	27.84	38.02	-0.04	7.61
20.832	27.84	38.02	-0.12	7.53
20.864	27.84	38.02	-0.12	7.53
20.896	27.83	38.01	-0.12	7.53
20.928	27.83	38.01	-0.00	7.64
20.960	27.83	38.01	-0.00	7.64
20.992	27.71	37.88	-0.00	7.64
21.024	27.71	37.88	-0.10	7.55
21.056	27.71	37.88	-0.10	7.55
21.088	27.83	38.01	-0.10	7.55
21.120	27.83	38.01	-0.05	7.60
21.152	27.83	38.01	-0.05	7.60
21.184	27.78	37.96	-0.05	7.60
21.216	27.78	37.96	-0.02	7.62
21.248	27.78	37.96	-0.02	7.62
21.280	27.80	37.98	-0.02	7.62
21.312	27.80	37.98	-0.12	7.53
21.344	27.80	37.98	-0.12	7.53
21.376	27.74	37.92	-0.12	7.53
21.408	27.74	37.92	-0.01	7.63
21.440	27.74	37.92	-0.01	7.63
21.472	27.74	37.92	-0.01	7.63
21.504	27.74	37.92	-0.10	7.55
21.536	27.74	37.92	-0.10	7.55
21.568	27.81	37.99	-0.10	7.55
21.600	27.81	37.99	-0.06	7.59
21.632	27.81	37.99	-0.06	7.59
21.664	27.71	37.89	-0.06	7.59
21.696	27.71	37.89	-0.02	7.63
21.728	27.71	37.89	-0.02	7.63
21.760	27.85	38.03	-0.02	7.63
21.792	27.85	38.03	-0.12	7.53
21.824	27.85	38.03	-0.12	7.53
21.856	27.72	37.89	-0.12	7.53
21.888	27.72	37.89	-0.01	7.63
21.920	27.72	37.89	-0.01	7.63
21.952	27.82	38.00	-0.01	7.63
21.984	27.82	38.00	-0.10	7.55
22.016	27.82	38.00	-0.10	7.55
22.048	27.91	38.09	-0.10	7.55
22.080	27.91	38.09	-0.07	7.58
22.112	27.91	38.09	-0.07	7.58
22.144	27.94	38.11	-0.07	7.58
22.176	27.94	38.11	-0.02	7.63
22.208	27.94	38.11	-0.02	7.63
22.240	27.95	38.13	-0.02	7.63
22.272	27.95	38.13	-0.12	7.53
22.304	27.95	38.13	-0.12	7.53
22.336	27.88	38.06	-0.12	7.53
22.368	27.88	38.06	-0.02	7.63
22.400	27.88	38.06	-0.02	7.63
22.432	27.90	38.07	-0.02	7.63
22.464	27.90	38.07	-0.09	7.56
22.496	27.90	38.07	-0.09	7.56
22.528	27.93	38.11	-0.09	7.56
22.560	27.93	38.11	-0.07	7.58
22.592	27.93	38.11	-0.07	7.58
22.624	27.80	37.98	-0.07	7.58
22.656	27.80	37.98	-0.01	7.64
22.688	27.80	37.98	-0.01	7.64
22.720	27.94	38.11	-0.01	7.64
22.752	27.94	38.11	-0.12	7.53
22.784	27.94	38.11	-0.12	7.53
22.816	27.84	38.01	-0.12	7.53
22.848	27.84	38.01	-0.02	7.63
22.880	27.84	38.01	-0.02	7.63
22.912	27.89	38.07	-0.02	7.63
22.944	27.89	38.07	-0.09	7.56
22.976	27.89	38.07	-0.09	7.56
23.008	27.96	38.14	-0.09	7.56
23.040	27.96	38.14	-0.08	7.57
23.072	27.96	38.14	-0.08	7.57
23.104	28.09	38.27	-0.08	7.57
23.136	28.09	38.27	-0.01	7.64
23.168	28.09	38.27	-0.01	7.64
23.200	28.00	38.18	-0.01	7.64
23.232	28.00	38.18	-0.12	7.53
23.264	28.00	38.18	-0.12	7.53
23.296	27.98	38.16	-0.12	7.53
23.328	27.98	38.16	-0.03	7.62
23.360	27.98	38.16	-0.03	7.62
23.392	28.01	38.19	-0.03	7.62
23.424	28.01	38.19	-0.08	7.57
23.456	28.01	38.19	-0.08	7.57
23.488	27.98	38.15	-0.08	7.57
23.520	27.98	38.15	-0.09	7.56
23.552	27.98	38.15	-0.09	7.56
23.584	28.00	38.18	-0.09	7.56
23.616	28.00	38.18	-0.01	7.64
23.648	28.00	38.18	-0.01	7.64
23.680	27.98	38.16	-0.01	7.64
23.712	27.98	38.16	-0.11	7.53
23.744	27.98	38.16	-0.11	7.53
23.776	28.00	38.18	-0.11	7.53
23.808	28.00	38.18	-0.02	7.62
23.840	28.00	38.18	-0.02	7.62
23.872	28.01	38.18	-0.02	7.62
23.904	28.01	38.18	-0.07	7.58
23.936	28.01	38.18	-0.07	7.58
23.968	28.01	38.19	-0.07	7.58
24.000	28.01	38.19	-0.10	7.55
24.032	28.01	38.19	-0.10	7.55
24.064	28.13	38.31	-0.10	7.55
24.096	28.13	38.31	-0.01	7.64
24.128	28.13	38.31	-0.01	7.64
24.160	27.93	38.11	-0.01	7.64
24.192	27.93	38.11	-0.11	7.54
24.224	27.93	38.11	-0.11	7.54
24.256	28.00	38.18	-0.11	7.54
24.288	28.00	38.18	-0.03	7.62
24.320	28.00	38.18	-0.03	7.62
24.352	28.08	38.26	-0.03	7.62
24.384	28.08	38.26	-0.06	7.59
24.416	28.08	38.26	-0.06	7.59
24.448	28.05	38.23	-0.06	7.59
24.480	28.05	38.23	-0.10	7.54
24.512	28.05	38.23	-0.10	7.54
24.544	28.07	38.24	-0.10	7.54
24.576	28.07	38.24	0.00	7.65
24.608	28.07	38.24	0.00	7.65
24.640	28.14	38.32	0.00	7.65
24.672	28.14	38.32	-0.11	7.54
24.704	28.14	38.32	-0.11	7.54
24.736	28.03	38.20	-0.11	7.54
24.768	28.03	38.20	-0.03	7.62
24.800	28.03	38.20	-0.03	7.62
24.832	28.13	38.31	-0.03	7.62
24.864	28.13	38.31	-0.06	7.59
24.896	28.13	38.31	-0.06	7.59
24.928	28.11	38.28	-0.06	7.59
24.960	28.11	38.28	-0.11	7.54
24.992	28.11	38.28	-0.11	7.54
25.024	28.16	38.33	-0.11	7.54
25.056	28.16	38.33	0.00	7.65
25.088	28.16	38.33	0.00	7.65
25.120	28.05	38.23	0.00	7.65
25.152	28.05	38.23	-0.10	7.55
25.184	28.05	38.23	-0.10	7.55
25.216	28.03	38.21	-0.10	7.55
25.248	28.03	38.21	-0.03	7.62
25.280	28.03	38.21	-0.03	7.62
25.312	28.05	38.23	-0.03	7.62
25.344	28.05	38.23	-0.05	7.60
25.376	28.05	38.23	-0.05	7.60
25.408	27.94	38.12	-0.05	7.60
25.440	27.94	38.12	-0.11	7.54
25.472	27.94	38.12	-0.11	7.54
25.504	28.12	38.30	-0.11	7.54
25.536	28.12	38.30	-0.00	7.65
25.568	28.12	38.30	-0.00	7.65
25.600	27.87	38.05	-0.00	7.65
25.632	27.87	38.05	-0.10	7.55
25.664	27.87	38.05	-0.10	7.55
25.696	27.98	38.16	-0.10	7.55
25.728	27.98	38.16	-0.04	7.61
25.760	27.98	38.16	-0.04	7.61
25.792	28.15	38.33	-0.04	7.61
25.824	28.15	38.33	-0.04	7.61
25.856	28.15	38.33	-0.04	7.61
25.888	28.04	38.22	-0.04	7.61
25.920	28.04	38.22	-0.11	7.54
25.952	28.04	38.22	-0.11	7.54
25.984	28.19	38.37	-0.11	7.54
26.016	28.19	38.37	-0.01	7.64
26.048	28.19	38.37	-0.01	7.64
26.080	28.00	38.17	-0.01	7.64
26.112	28.00	38.17	-0.10	7.55
26.144	28.00	38.17	-0.10	7.55
26.176	28.16	38.33	-0.10	7.55
26.208	28.16	38.33	-0.04	7.60
26.240	28.16	38.33	-0.04	7.60
26.272	28.09	38.27	-0.04	7.60
26.304	28.09	38.27	-0.03	7.62
26.336	28.09	38.27	-0.03	7.62
26.368	28.01	38.19	-0.03	7.62
26.400	28.01	38.19	-0.12	7.53
26.432	28.01	38.19	-0.12	7.53
26.464	28.14	38.32	-0.12	7.53
26.496	28.14	38.32	-0.01	7.64
26.528	28.14	38.32	-0.01	7.64
26.560	28.11	38.29	-0.01	7.64
26.592	28.11	38.29	-0.10	7.55
26.624	28.11	38.29	-0.10	7.55
26.656	28.12	38.30	-0.10	7.55
26.688	28.12	38.30	-0.05	7.59
26.720	28.12	38.30	-0.05	7.59
26.752	28.12	38.30	-0.05	7.59
26.784	28.12	38.30	-0.02	7.62
26.816	28.12	38.30	-0.02	7.62
26.848	28.14	38.32	-0.02	7.62
26.880	28.14	38.32	-0.11	7.54
26.912	28.14	38.32	-0.11	7.54
26.944	28.13	38.31	-0.11	7.54
26.976	28.13	38.31	-0.01	7.64
27.008	28.13	38.31	-0.01	7.64
27.040	28.06	38.24	-0.01	7.64
27.072	28.06	38.24	-0.10	7.55
27.104	28.06	38.24	-0.10	7.55
27.136	28.12	38.30	-0.10	7.55
27.168	28.12	38.30	-0.06	7.59
27.200	28.12	38.30	-0.06	7.59
27.232	28.11	38.29	-0.06	7.59
27.264	28.11	38.29	-0.02	7.63
27.296	28.11	38.29	-0.02	7.63
27.328	27.96	38.14	-0.02	7.63
27.360	27.96	38.14	-0.12	7.53
27.392	27.96	38.14	-0.12	7.53
27.424	28.27	38.45	-0.12	7.53
27.456	28.27	38.45	-0.02	7.63
27.488	28.27	38.45	-0.02	7.63
27.520	28.03	38.21	-0.02	7.63
27.552	28.03	38.21	-0.10	7.55
27.584	28.03	38.21	-0.10	7.55
27.616	28.08	38.26	-0.10	7.55
27.648	28.08	38.26	-0.07	7.58
27.680	28.08	38.26	-0.07	7.58
27.712	28.14	38.31	-0.07	7.58
27.744	28.14	38.31	-0.01	7.64
27.776	28.14	38.31	-0.01	7.64
27.808	28.29	38.47	-0.01	7.64
27.840	28.29	38.47	-0.12	7.53
27.872	28.29	38.47	-0.12	7.53
27.904	28.23	38.41	-0.12	7.53
27.936	28.23	38.41	-0.02	7.63
27.968	28.23	38.41	-0.02	7.63
28.000	28.05	38.22	-0.02	7.63
28.032	28.05	38.22	-0.09	7.56
28.064	28.05	38.22	-0.09	7.56
28.096	28.11	38.29	-0.09	7.56
28.128	28.11	38.29	-0.08	7.57
28.160	28.11	38.29	-0.08	7.57
28.192	28.09	38.27	-0.08	7.57
28.224	28.09	38.27	-0.01	7.64
28.256	28.09	38.27	-0.01	7.64
28.288	28.06	38.24	-0.01	7.64
28.320	28.06	38.24	-0.12	7.53
28.352	28.06	38.24	-0.12	7.53
28.384	28.18	38.35	-0.12	7.53
28.416	28.18	38.35	-0.02	7.63
28.448	28.18	38.35	-0.02	7.63
28.480	28.08	38.26	-0.02	7.63
28.512	28.08	38.26	-0.08	7.57
28.544	28.08	38.26	-0.08	7.57
28.576	28.23	38.41	-0.08	7.57
28.608	28.23	38.41	-0.08	7.57
28.640	28.23	38.41	-0.08	7.57
28.672	28.17	38.35	-0.08	7.57
28.704	28.17	38.35	-0.01	7.64
28.736	28.17	38.35	-0.01	7.64
28.768	28.27	38.45	-0.01	7.64
28.800	28.27	38.45	-0.11	7.54
28.832	28.27	38.45	-0.11	7.54
28.864	28.12	38.30	-0.11	7.54
28.896	28.12	38.30	-0.02	7.62
28.928	28.12	38.30	-0.02	7.62
28.960	28.13	38.30	-0.02	7.62
28.992	28.13	38.30	-0.08	7.57
29.024	28.13	38.30	-0.08	7.57
29.056	28.22	38.40	-0.08	7.57
29.088	28.22	38.40	-0.10	7.55
29.120	28.22	38.40	-0.10	7.55
29.152	28.17	38.35	-0.10	7.55
29.184	28.17	38.35	-0.01	7.64
29.216	28.17	38.35	-0.01	7.64
29.248	28.17	38.35	-0.01	7.64
29.280	28.17	38.35	-0.11	7.54
29.312	28.17	38.35	-0.11	7.54
29.344	28.23	38.41	-0.11	7.54
29.376	28.23	38.41	-0.03	7.62
29.408	28.23	38.41	-0.03	7.62
29.440	28.20	38.38	-0.03	7.62
29.472	28.20	38.38	-0.07	7.58
29.504	28.20	38.38	-0.07	7.58
29.536	28.31	38.49	-0.07	7.58
29.568	28.31	38.49	-0.10	7.55
29.600	28.31	38.49	-0.10	7.55
29.632	28.19	38.36	-0.10	7.55
29.664	28.19	38.36	-0.01	7.64
29.696	28.19	38.36	-0.01	7.64
29.728	28.34	38.51	-0.01	7.64
29.760	28.34	38.51	-0.11	7.54
29.792	28.34	38.51	-0.11	7.54
29.824	28.17	38.34	-0.11	7.54
29.856	28.17	38.34	-0.02	7.62
29.888	28.17	38.34	-0.02	7.62
29.920	28.14	38.31	-0.02	7.62
29.952	28.14	38.31	-0.06	7.59
29.984	28.14	38.31	-0.06	7.59
30.016	28.18	38.36	-0.06	7.59
30.048	28.18	38.36	-0.10	7.54
30.080	28.18	38.36	-0.10	7.54
30.112	27.95	38.13	-0.10	7.54
30.144	27.95	38.13	-0.00	7.64
30.176	27.95	38.13	-0.00	7.64
30.208	28.08	38.26	-0.00	7.64
30.240	28.08	38.26	-0.10	7.54
30.272	28.08	38.26	-0.10	7.54
30.304	28.04	38.22	-0.10	7.54
30.336	28.04	38.22	-0.03	7.62
30.368	28.04	38.22	-0.03	7.62
30.400	27.99	38.17	-0.03	7.62
30.432	27.99	38.17	-0.05	7.60
30.464	27.99	38.17	-0.05	7.60
30.496	28.07	38.25	-0.05	7.60
30.528	28.07	38.25	-0.11	7.54
30.560	28.07	38.25	-0.11	7.54
30.592	28.07	38.25	-0.11	7.54
30.624	28.07	38.25	-0.00	7.65
30.656	28.07	38.25	-0.00	7.65
30.688	28.16	38.34	-0.00	7.65
30.720	28.16	38.34	-0.10	7.55
30.752	28.16	38.34	-0.10	7.55
30.784	27.99	38.17	-0.10	7.55
30.816	27.99	38.17	-0.04	7.61
30.848	27.99	38.17	-0.04	7.61
30.880	28.03	38.20	-0.04	7.61
30.912	28.03	38.20	-0.04	7.61
30.944	28.03	38.20	-0.04	7.61
30.976	28.13	38.31	-0.04	7.61
31.008	28.13	38.31	-0.11	7.54
31.040	28.13	38.31	-0.11	7.54
31.072	27.99	38.17	-0.11	7.54
31.104	27.99	38.17	-0.01	7.64
31.136	27.99	38.17	-0.01	7.64
31.168	28.07	38.25	-0.01	7.64
31.200	28.07	38.25	-0.10	7.55
31.232	28.07	38.25	-0.10	7.55
31.264	27.94	38.12	-0.10	7.55
31.296	27.94	38.12	-0.04	7.61
31.328	27.94	38.12	-0.04	7.61
31.360	27.98	38.16	-0.04	7.61
31.392	27.98	38.16	-0.03	7.62
31.424	27.98	38.16	-0.03	7.62
31.456	28.13	38.31	-0.03	7.62
31.488	28.13	38.31	-0.11	7.53
31.520	28.13	38.31	-0.11	7.53
31.552	28.07	38.24	-0.11	7.53
31.584	28.07	38.24	-0.01	7.64
31.616	28.07	38.24	-0.01	7.64
31.648	28.13	38.30	-0.01	7.64
31.680	28.13	38.30	-0.10	7.55
31.712	28.13	38.30	-0.10	7.55
31.744	27.95	38.12	-0.10	7.55
31.776	27.95	38.12	-0.05	7.60
31.808	27.95	38.12	-0.05	7.60
31.840	28.00	38.18	-0.05	7.60
31.872	28.00	38.18	-0.02	7.62
31.904	28.00	38.18	-0.02	7.62
31.936	28.02	38.20	-0.02	7.62
31.968	28.02	38.20	-0.11	7.53
32.000	28.02	38.20	-0.11	7.53
32.032	28.00	38.18	-0.11	7.53
32.064	28.00	38.18	-0.01	7.64
32.096	28.00	38.18	-0.01	7.64
32.128	28.07	38.25	-0.01	7.64
32.160	28.07	38.25	-0.10	7.55
32.192	28.07	38.25	-0.10	7.55
32.224	27.98	38.16	-0.10	7.55
32.256	27.98	38.16	-0.06	7.59
32.288	27.98	38.16	-0.06	7.59
32.320	27.95	38.13	-0.06	7.59
32.352	27.95	38.13	-0.02	7.63
32.384	27.95	38.13	-0.02	7.63
32.416	28.12	38.30	-0.02	7.63
32.448	28.12	38.30	-0.12	7.53
32.480	28.12	38.30	-0.12	7.53
32.512	28.05	38.23	-0.12	7.53
32.544	28.05	38.23	-0.01	7.63
32.576	28.05	38.23	-0.01	7.63
32.608	28.09	38.27	-0.01	7.63
32.640	28.09	38.27	-0.09	7.55
32.672	28.09	38.27	-0.09	7.55
32.704	27.94	38.12	-0.09	7.55
32.736	27.94	38.12	-0.07	7.58
32.768	27.94	38.12	-0.07	7.58
32.800	28.06	38.24	-0.07	7.58
32.832	28.06	38.24	-0.01	7.63
32.864	28.06	38.24	-0.01	7.63
32.896	28.10	38.28	-0.01	7.63
32.928	28.10	38.28	-0.12	7.53
32.960	28.10	38.28	-0.12	7.53
32.992	28.07	38.25	-0.12	7.53
33.024	28.07	38.25	-0.02	7.63
33.056	28.07	38.25	-0.02	7.63
33.088	28.07	38.25	-0.02	7.63
33.120	28.07	38.25	-0.09	7.56
33.152	28.07	38.25	-0.09	7.56
33.184	28.04	38.22	-0.09	7.56
33.216	28.04	38.22	-0.07	7.58
33.248	28.04	38.22	-0.07	7.58
33.280	27.90	38.08	-0.07	7.58
33.312	27.90	38.08	-0.01	7.64
33.344	27.90	38.08	-0.01	7.64
33.376	28.01	38.19	-0.01	7.64
33.408	28.01	38.19	-0.12	7.52
33.440	28.01	38.19	-0.12	7.52
33.472	28.04	38.21	-0.12	7.52
33.504	28.04	38.21	-0.02	7.63
33.536	28.04	38.21	-0.02	7.63
33.568	27.95	38.13	-0.02	7.63
33.600	27.95	38.13	-0.09	7.56
33.632	27.95	38.13	-0.09	7.56
33.664	28.03	38.21	-0.09	7.56
33.696	28.03	38.21	-0.09	7.56
33.728	28.03	38.21	-0.09	7.56
33.760	27.97	38.15	-0.09	7.56
33.792	27.97	38.15	-0.01	7.64
33.824	27.97	38.15	-0.01	7.64
33.856	28.00	38.18	-0.01	7.64
33.888	28.00	38.18	-0.12	7.53
33.920	28.00	38.18	-0.12	7.53
33.952	27.99	38.16	-0.12	7.53
33.984	27.99	38.16	-0.03	7.62
34.016	27.99	38.16	-0.03	7.62
34.048	28.09	38.27	-0.03	7.62
34.080	28.09	38.27	-0.09	7.56
34.112	28.09	38.27	-0.09	7.56
34.144	27.94	38.12	-0.09	7.56
34.176	27.94	38.12	-0.09	7.56
34.208	27.94	38.12	-0.09	7.56
34.240	28.02	38.19	-0.09	7.56
34.272	28.02	38.19	-0.01	7.64
34.304	28.02	38.19	-0.01	7.64
34.336	28.02	38.20	-0.01	7.64
34.368	28.02	38.20	-0.11	7.53
34.400	28.02	38.20	-0.11	7.53
34.432	28.09	38.27	-0.11	7.53
34.464	28.09	38.27	-0.02	7.62
34.496	28.09	38.27	-0.02	7.62
34.528	28.05	38.23	-0.02	7.62
34.560	28.05	38.23	-0.07	7.58
34.592	28.05	38.23	-0.07	7.58
34.624	28.00	38.18	-0.07	7.58
34.656	28.00	38.18	-0.10	7.55
34.688	28.00	38.18	-0.10	7.55
34.720	27.98	38.16	-0.10	7.55
34.752	27.98	38.16	-0.01	7.64
34.784	27.98	38.16	-0.01	7.64
34.816	27.99	38.17	-0.01	7.64
34.848	27.99	38.17	-0.11	7.54
34.880	27.99	38.17	-0.11	7.54
34.912	27.98	38.16	-0.11	7.54
34.944	27.98	38.16	-0.02	7.62
34.976	27.98	38.16	-0.02	7.62
35.008	27.98	38.16	-0.02	7.62
35.040	27.98	38.16	-0.06	7.58
35.072	27.98	38.16	-0.06	7.58
35.104	28.11	38.28	-0.06	7.58
35.136	28.11	38.28	-0.11	7.54
35.168	28.11	38.28	-0.11	7.54
35.200	28.03	38.20	-0.11	7.54
35.232	28.03	38.20	-0.01	7.64
35.264	28.03	38.20	-0.01	7.64
35.296	28.07	38.24	-0.01	7.64
35.328	28.07	38.24	-0.10	7.54
35.360	28.07	38.24	-0.10	7.54
35.392	28.19	38.36	-0.10	7.54
35.424	28.19	38.36	-0.03	7.62
35.456	28.19	38.36	-0.03	7.62
35.488	28.08	38.26	-0.03	7.62
35.520	28.08	38.26	-0.05	7.59
35.552	28.08	38.26	-0.05	7.59
35.584	28.01	38.19	-0.05	7.59
35.616	28.01	38.19	-0.10	7.54
35.648	28.01	38.19	-0.10	7.54
35.680	28.06	38.24	-0.10	7.54
35.712	28.06	38.24	0.00	7.65
35.744	28.06	38.24	0.00	7.65
35.776	27.95	38.13	0.00	7.65
35.808	27.95	38.13	-0.10	7.54
35.840	27.95	38.13	-0.10	7.54
35.872	28.08	38.26	-0.10	7.54
35.904	28.08	38.26	-0.03	7.62
35.936	28.08	38.26	-0.03	7.62
35.968	28.10	38.28	-0.03	7.62
36.000	28.10	38.28	-0.05	7.60
36.032	28.10	38.28	-0.05	7.60
36.064	27.94	38.11	-0.05	7.60
36.096	27.94	38.11	-0.11	7.54
36.128	27.94	38.11	-0.11	7.54
36.160	28.11	38.29	-0.11	7.54
36.192	28.11	38.29	-0.00	7.65
36.224	28.11	38.29	-0.00	7.65
36.256	28.01	38.19	-0.00	7.65
36.288	28.01	38.19	-0.10	7.55
36.320	28.01	38.19	-0.10	7.55
36.352	28.14	38.31	-0.10	7.55
36.384	28.14	38.31	-0.04	7.61
36.416	28.14	38.31	-0.04	7.61
36.448	28.07	38.25	-0.04	7.61
36.480	28.07	38.25	-0.03	7.62
36.512	28.07	38.25	-0.03	7.62
36.544	28.06	38.24	-0.03	7.62
36.576	28.06	38.24	-0.12	7.53
36.608	28.06	38.24	-0.12	7.53
36.640	28.16	38.34	-0.12	7.53
36.672	28.16	38.34	-0.01	7.64
36.704	28.16	38.34	-0.01	7.64
36.736	28.02	38.20	-0.01	7.64
36.768	28.02	38.20	-0.10	7.55
36.800	28.02	38.20	-0.10	7.55
36.832	28.15	38.33	-0.10	7.55
36.864	28.15	38.33	-0.04	7.61
36.896	28.15	38.33	-0.04	7.61
36.928	28.15	38.33	-0.04	7.61
36.960	28.15	38.33	-0.03	7.62
36.992	28.15	38.33	-0.03	7.62
37.024	28.11	38.29	-0.03	7.62
37.056	28.11	38.29	-0.12	7.53
37.088	28.11	38.29	-0.12	7.53
37.120	28.19	38.37	-0.12	7.53
37.152	28.19	38.37	-0.01	7.64
37.184	28.19	38.37	-0.01	7.64
37.216	28.21	38.38	-0.01	7.64
37.248	28.21	38.38	-0.10	7.55
37.280	28.21	38.38	-0.10	7.55
37.312	28.30	38.48	-0.10	7.55
37.344	28.30	38.48	-0.06	7.59
37.376	28.30	38.48	-0.06	7.59
37.408	28.14	38.31	-0.06	7.59
37.440	28.14	38.31	-0.02	7.63
37.472	28.14	38.31	-0.02	7.63
37.504	28.27	38.44	-0.02	7.63
37.536	28.27	38.44	-0.11	7.53
37.568	28.27	38.44	-0.11	7.53
37.600	28.22	38.40	-0.11	7.53
37.632	28.22	38.40	-0.01	7.63
37.664	28.22	38.40	-0.01	7.63
37.696	28.16	38.34	-0.01	7.63
37.728	28.16	38.34	-0.09	7.55
37.760	28.16	38.34	-0.09	7.55
37.792	28.39	38.57	-0.09	7.55
37.824	28.39	38.57	-0.06	7.59
37.856	28.39	38.57	-0.06	7.59
37.888	28.27	38.45	-0.06	7.59
37.920	28.27	38.45	-0.02	7.63
37.952	28.27	38.45	-0.02	7.63
37.984	28.38	38.56	-0.02	7.63
38.016	28.38	38.56	-0.12	7.53
38.048	28.38	38.56	-0.12	7.53
38.080	28.31	38.48	-0.12	7.53
38.112	28.31	38.48	-0.02	7.63
38.144	28.31	38.48	-0.02	7.63
38.176	28.36	38.53	-0.02	7.63
38.208	28.36	38.53	-0.09	7.56
38.240	28.36	38.53	-0.09	7.56
38.272	28.35	38.53	-0.09	7.56
38.304	28.35	38.53	-0.07	7.58
38.336	28.35	38.53	-0.07	7.58
38.368	28.14	38.31	-0.07	7.58
38.400	28.14	38.31	-0.01	7.63
38.432	28.14	38.31	-0.01	7.63
38.464	28.25	38.43	-0.01	7.63
38.496	28.25	38.43	-0.12	7.53
38.528	28.25	38.43	-0.12	7.53
38.560	28.25	38.43	-0.12	7.53
38.592	28.25	38.43	-0.02	7.62
38.624	28.25	38.43	-0.02	7.62
38.656	28.22	38.40	-0.02	7.62
38.688	28.22	38.40	-0.09	7.56
38.720	28.22	38.40	-0.09	7.56
38.752	28.43	38.61	-0.09	7.56
38.784	28.43	38.61	-0.08	7.57
38.816	28.43	38.61	-0.08	7.57
38.848	28.35	38.53	-0.08	7.57
38.880	28.35	38.53	-0.01	7.64
38.912	28.35	38.53	-0.01	7.64
38.944	28.35	38.53	-0.01	7.64
38.976	28.35	38.53	-0.12	7.53
39.008	28.35	38.53	-0.12	7.53
39.040	28.52	38.70	-0.12	7.53
39.072	28.52	38.70	-0.02	7.62
39.104	28.52	38.70	-0.02	7.62
39.136	28.47	38.64	-0.02	7.62
39.168	28.47	38.64	-0.08	7.57
39.200	28.47	38.64	-0.08	7.57
39.232	28.38	38.56	-0.08	7.57
39.264	28.38	38.56	-0.09	7.56
39.296	28.38	38.56	-0.09	7.56
39.328	28.28	38.46	-0.09	7.56
39.360	28.28	38.46	-0.01	7.64
39.392	28.28	38.46	-0.01	7.64
39.424	28.30	38.47	-0.01	7.64
39.456	28.30	38.47	-0.11	7.54
39.488	28.30	38.47	-0.11	7.54
39.520	28.27	38.45	-0.11	7.54
39.552	28.27	38.45	-0.02	7.63
39.584	28.27	38.45	-0.02	7.63
39.616	28.25	38.43	-0.02	7.63
39.648	28.25	38.43	-0.07	7.58
39.680	28.25	38.43	-0.07	7.58
39.712	28.28	38.46	-0.07	7.58
39.744	28.28	38.46	-0.10	7.55
39.776	28.28	38.46	-0.10	7.55
39.808	28.23	38.41	-0.10	7.55
39.840	28.23	38.41	-0.01	7.64
39.872	28.23	38.41	-0.01	7.64
39.904	28.34	38.52	-0.01	7.64
39.936	28.34	38.52	-0.11	7.54
39.968	28.34	38.52	-0.11	7.54
40.000	28.31	38.49	-0.11	7.54
40.032	28.31	38.49	-0.02	7.63
40.064	28.31	38.49	-0.02	7.63
40.096	28.39	38.57	-0.02	7.63
40.128	28.39	38.57	-0.06	7.59
40.160	28.39	38.57	-0.06	7.59
40.192	28.21	38.39	-0.06	7.59
40.224	28.21	38.39	-0.10	7.55
40.256	28.21	38.39	-0.10	7.55
40.288	28.21	38.38	-0.10	7.55
40.320	28.21	38.38	-0.00	7.65
40.352	28.21	38.38	-0.00	7.65
40.384	28.19	38.37	-0.00	7.65
40.416	28.19	38.37	-0.11	7.54
40.448	28.19	38.37	-0.11	7.54
40.480	28.14	38.32	-0.11	7.54
40.512	28.14	38.32	-0.03	7.62
40.544	28.14	38.32	-0.03	7.62
40.576	28.11	38.29	-0.03	7.62
40.608	28.11	38.29	-0.05	7.60
40.640	28.11	38.29	-0.05	7.60
40.672	28.24	38.42	-0.05	7.60
40.704	28.24	38.42	-0.11	7.54
40.736	28.24	38.42	-0.11	7.54
40.768	28.07	38.25	-0.11	7.54
40.800	28.07	38.25	-0.00	7.65
40.832	28.07	38.25	-0.00	7.65
40.864	28.28	38.46	-0.00	7.65
40.896	28.28	38.46	-0.10	7.55
40.928	28.28	38.46	-0.10	7.55
40.960	28.23	38.41	-0.10	7.55
40.992	28.23	38.41	-0.04	7.61
41.024	28.23	38.41	-0.04	7.61
41.056	28.38	38.56	-0.04	7.61
41.088	28.38	38.56	-0.04	7.61
41.120	28.38	38.56	-0.04	7.61
41.152	28.18	38.35	-0.04	7.61
41.184	28.18	38.35	-0.11	7.54
41.216	28.18	38.35	-0.11	7.54
41.248	28.14	38.31	-0.11	7.54
41.280	28.14	38.31	-0.00	7.65
41.312	28.14	38.31	-0.00	7.65
41.344	28.16	38.34	-0.00	7.65
41.376	28.16	38.34	-0.10	7.55
41.408	28.16	38.34	-0.10	7.55
41.440	28.12	38.29	-0.10	7.55
41.472	28.12	38.29	-0.04	7.60
41.504	28.12	38.29	-0.04	7.60
41.536	28.21	38.39	-0.04	7.60
41.568	28.21	38.39	-0.03	7.62
41.600	28.21	38.39	-0.03	7.62
41.632	28.17	38.35	-0.03	7.62
41.664	28.17	38.35	-0.11	7.54
41.696	28.17	38.35	-0.11	7.54
41.728	28.13	38.30	-0.11	7.54
41.760	28.13	38.30	-0.01	7.64
41.792	28.13	38.30	-0.01	7.64
41.824	28.27	38.45	-0.01	7.64
41.856	28.27	38.45	-0.10	7.55
41.888	28.27	38.45	-0.10	7.55
41.920	28.25	38.43	-0.10	7.55
41.952	28.25	38.43	-0.05	7.60
41.984	28.25	38.43	-0.05	7.60
42.016	28.28	38.46	-0.05	7.60
42.048	28.28	38.46	-0.02	7.63
42.080	28.28	38.46	-0.02	7.63
42.112	28.13	38.31	-0.02	7.63
42.144	28.13	38.31	-0.11	7.54
42.176	28.13	38.31	-0.11	7.54
42.208	28.14	38.32	-0.11	7.54
42.240	28.14	38.32	-0.01	7.63
42.272	28.14	38.32	-0.01	7.63
42.304	28.20	38.38	-0.01	7.63
42.336	28.20	38.38	-0.09	7.55
42.368	28.20	38.38	-0.09	7.55
42.400	28.09	38.27	-0.09	7.55
42.432	28.09	38.27	-0.06	7.58
42.464	28.09	38.27	-0.06	7.58
42.496	28.17	38.34	-0.06	7.58
42.528	28.17	38.34	-0.02	7.63
42.560	28.17	38.34	-0.02	7.63
42.592	28.21	38.39	-0.02	7.63
42.624	28.21	38.39	-0.12	7.53
42.656	28.21	38.39	-0.12	7.53
42.688	28.13	38.31	-0.12	7.53
42.720	28.13	38.31	-0.01	7.64
42.752	28.13	38.31	-0.01	7.64
42.784	28.23	38.41	-0.01	7.64
42.816	28.23	38.41	-0.09	7.56
42.848	28.23	38.41	-0.09	7.56
42.880	28.22	38.40	-0.09	7.56
42.912	28.22	38.40	-0.07	7.58
42.944	28.22	38.40	-0.07	7.58
42.976	28.24	38.42	-0.07	7.58
43.008	28.24	38.42	-0.02	7.63
43.040	28.24	38.42	-0.02	7.63
43.072	28.07	38.25	-0.02	7.63
43.104	28.07	38.25	-0.12	7.53
43.136	28.07	38.25	-0.12	7.53
43.168	28.18	38.36	-0.12	7.53
43.200	28.18	38.36	-0.02	7.63
43.232	28.18	38.36	-0.02	7.63
43.264	28.14	38.32	-0.02	7.63
43.296	28.14	38.32	-0.09	7.56
43.328	28.14	38.32	-0.09	7.56
43.360	28.11	38.29	-0.09	7.56
43.392	28.11	38.29	-0.08	7.57
43.424	28.11	38.29	-0.08	7.57
43.456	28.22	38.40	-0.08	7.57
43.488	28.22	38.40	-0.01	7.64
43.520	28.22	38.40	-0.01	7.64
43.552	28.16	38.34	-0.01	7.64
43.584	28.16	38.34	-0.12	7.53
43.616	28.16	38.34	-0.12	7.53
43.648	28.20	38.38	-0.12	7.53
43.680	28.20	38.38	-0.02	7.63
43.712	28.20	38.38	-0.02	7.63
43.744	28.21	38.39	-0.02	7.63
43.776	28.21	38.39	-0.09	7.56
43.808	28.21	38.39	-0.09	7.56
43.840	28.28	38.46	-0.09	7.56
43.872	28.28	38.46	-0.09	7.56
43.904	28.28	38.46	-0.09	7.56
43.936	28.20	38.38	-0.09	7.56
43.968	28.20	38.38	-0.01	7.64
44.000	28.20	38.38	-0.01	7.64
44.032	28.11	38.29	-0.01	7.64
44.064	28.11	38.29	-0.11	7.53
44.096	28.11	38.29	-0.11	7.53
44.128	28.19	38.37	-0.11	7.53
44.160	28.19	38.37	-0.02	7.62
44.192	28.19	38.37	-0.02	7.62
44.224	28.25	38.43	-0.02	7.62
44.256	28.25	38.43	-0.08	7.57
44.288	28.25	38.43	-0.08	7.57
44.320	28.20	38.38	-0.08	7.57
44.352	28.20	38.38	-0.10	7.55
44.384	28.20	38.38	-0.10	7.55
44.416	28.24	38.42	-0.10	7.55
44.448	28.24	38.42	-0.01	7.64
44.480	28.24	38.42	-0.01	7.64
44.512	28.21	38.39	-0.01	7.64
44.544	28.21	38.39	-0.11	7.53
44.576	28.21	38.39	-0.11	7.53
44.608	28.23	38.41	-0.11	7.53
44.640	28.23	38.41	-0.02	7.62
44.672	28.23	38.41	-0.02	7.62
44.704	28.37	38.54	-0.02	7.62
44.736	28.37	38.54	-0.06	7.58
44.768	28.37	38.54	-0.06	7.58
44.800	28.21	38.39	-0.06	7.58
44.832	28.21	38.39	-0.10	7.55
44.864	28.21	38.39	-0.10	7.55
44.896	28.25	38.43	-0.10	7.55
44.928	28.25	38.43	-0.00	7.64
44.960	28.25	38.43	-0.00	7.64
44.992	28.30	38.48	-0.00	7.64
45.024	28.30	38.48	-0.11	7.54
45.056	28.30	38.48	-0.11	7.54
45.088	28.22	38.40	-0.11	7.54
45.120	28.22	38.40	-0.03	7.62
45.152	28.22	38.40	-0.03	7.62
45.184	28.19	38.37	-0.03	7.62
45.216	28.19	38.37	-0.05	7.59
45.248	28.19	38.37	-0.05	7.59
45.280	28.21	38.39	-0.05	7.59
45.312	28.21	38.39	-0.11	7.54
45.344	28.21	38.39	-0.11	7.54
45.376	28.25	38.43	-0.11	7.54
45.408	28.25	38.43	-0.00	7.64
45.440	28.25	38.43	-0.00	7.64
45.472	28.21	38.39	-0.00	7.64
45.504	28.21	38.39	-0.10	7.55
45.536	28.21	38.39	-0.10	7.55
45.568	28.32	38.50	-0.10	7.55
45.600	28.32	38.50	-0.03	7.62
45.632	28.32	38.50	-0.03	7.62
45.664	28.24	38.42	-0.03	7.62
45.696	28.24	38.42	-0.05	7.60
45.728	28.24	38.42	-0.05	7.60
45.760	28.36	38.54	-0.05	7.60
45.792	28.36	38.54	-0.11	7.54
45.824	28.36	38.54	-0.11	7.54
45.856	28.23	38.41	-0.11	7.54
45.888	28.23	38.41	-0.00	7.65
45.920	28.23	38.41	-0.00	7.65
45.952	28.25	38.42	-0.00	7.65
45.984	28.25	38.42	-0.10	7.55
46.016	28.25	38.42	-0.10	7.55
46.048	28.21	38.39	-0.10	7.55
46.080	28.21	38.39	-0.04	7.61
46.112	28.21	38.39	-0.04	7.61
46.144	28.15	38.32	-0.04	7.61
46.176	28.15	38.32	-0.04	7.61
46.208	28.15	38.32	-0.04	7.61
46.240	28.26	38.44	-0.04	7.61
46.272	28.26	38.44	-0.11	7.53
46.304	28.26	38.44	-0.11	7.53
46.336	28.14	38.32	-0.11	7.53
46.368	28.14	38.32	-0.01	7.64
46.400	28.14	38.32	-0.01	7.64
46.432	28.15	38.33	-0.01	7.64
46.464	28.15	38.33	-0.09	7.55
46.496	28.15	38.33	-0.09	7.55
46.528	28.21	38.39	-0.09	7.55
46.560	28.21	38.39	-0.04	7.60
46.592	28.21	38.39	-0.04	7.60
46.624	28.28	38.46	-0.04	7.60
46.656	28.28	38.46	-0.03	7.62
46.688	28.28	38.46	-0.03	7.62
46.720	28.46	38.64	-0.03	7.62
46.752	28.46	38.64	-0.11	7.53
46.784	28.46	38.64	-0.11	7.53
46.816	28.19	38.37	-0.11	7.53
46.848	28.19	38.37	-0.01	7.64
46.880	28.19	38.37	-0.01	7.64
46.912	28.26	38.44	-0.01	7.64
46.944	28.26	38.44	-0.10	7.55
46.976	28.26	38.44	-0.10	7.55
47.008	28.20	38.38	-0.10	7.55
47.040	28.20	38.38	-0.05	7.60
47.072	28.20	38.38	-0.05	7.60
47.104	28.13	38.31	-0.05	7.60
47.136	28.13	38.31	-0.02	7.63
47.168	28.13	38.31	-0.02	7.63
47.200	28.23	38.41	-0.02	7.63
47.232	28.23	38.41	-0.11	7.53
47.264	28.23	38.41	-0.11	7.53
47.296	28.15	38.32	-0.11	7.53
47.328	28.15	38.32	-0.02	7.63
47.360	28.15	38.32	-0.02	7.63
47.392	28.18	38.35	-0.02	7.63
47.424	28.18	38.35	-0.10	7.55
47.456	28.18	38.35	-0.10	7.55
47.488	28.22	38.39	-0.10	7.55
47.520	28.22	38.39	-0.06	7.59
47.552	28.22	38.39	-0.06	7.59
47.584	28.26	38.44	-0.06	7.59
47.616	28.26	38.44	-0.02	7.63
47.648	28.26	38.44	-0.02	7.63
47.680	28.32	38.49	-0.02	7.63
47.712	28.32	38.49	-0.12	7.53
47.744	28.32	38.49	-0.12	7.53
47.776	28.14	38.32	-0.12	7.53
47.808	28.14	38.32	-0.01	7.63
47.840	28.14	38.32	-0.01	7.63
47.872	28.20	38.38	-0.01	7.63
47.904	28.20	38.38	-0.09	7.55
47.936	28.20	38.38	-0.09	7.55
47.968	28.18	38.35	-0.09	7.55
48.000	28.18	38.35	-0.07	7.58
48.032	28.18	38.35	-0.07	7.58
48.064	28.19	38.36	-0.07	7.58
48.096	28.19	38.36	-0.01	7.64
48.128	28.19	38.36	-0.01	7.64
48.160	28.25	38.43	-0.01	7.64
48.192	28.25	38.43	-0.12	7.53
48.224	28.25	38.43	-0.12	7.53
48.256	28.27	38.45	-0.12	7.53
48.288	28.27	38.45	-0.02	7.63
48.320	28.27	38.45	-0.02	7.63
48.352	28.24	38.42	-0.02	7.63
48.384	28.24	38.42	-0.09	7.56
48.416	28.24	38.42	-0.09	7.56
48.448	28.32	38.50	-0.09	7.56
48.480	28.32	38.50	-0.07	7.57
48.512	28.32	38.50	-0.07	7.57
48.544	28.28	38.46	-0.07	7.57
48.576	28.28	38.46	-0.01	7.64
48.608	28.28	38.46	-0.01	7.64
48.640	28.32	38.50	-0.01	7.64
48.672	28.32	38.50	-0.12	7.53
48.704	28.32	38.50	-0.12	7.53
48.736	28.23	38.41	-0.12	7.53
48.768	28.23	38.41	-0.02	7.62
48.800	28.23	38.41	-0.02	7.62
48.832	28.29	38.47	-0.02	7.62
48.864	28.29	38.47	-0.09	7.56
48.896	28.29	38.47	-0.09	7.56
48.928	28.26	38.44	-0.09	7.56
48.960	28.26	38.44	-0.09	7.56
48.992	28.26	38.44	-0.09	7.56
49.024	28.29	38.47	-0.09	7.56
49.056	28.29	38.47	-0.01	7.64
49.088	28.29	38.47	-0.01	7.64
49.120	28.44	38.62	-0.01	7.64
49.152	28.44	38.62	-0.11	7.53
49.184	28.44	38.62	-0.11	7.53
49.216	28.36	38.54	-0.11	7.53
49.248	28.36	38.54	-0.03	7.62
49.280	28.36	38.54	-0.03	7.62
49.312	28.32	38.50	-0.03	7.62
49.344	28.32	38.50	-0.07	7.57
49.376	28.32	38.50	-0.07	7.57
49.408	28.41	38.59	-0.07	7.57
49.440	28.41	38.59	-0.10	7.55
49.472	28.41	38.59	-0.10	7.55
49.504	28.39	38.57	-0.10	7.55
49.536	28.39	38.57	-0.01	7.64
49.568	28.39	38.57	-0.01	7.64
49.600	28.33	38.51	-0.01	7.64
49.632	28.33	38.51	-0.11	7.54
49.664	28.33	38.51	-0.11	7.54
49.696	28.21	38.39	-0.11	7.54
49.728	28.21	38.39	-0.02	7.63
49.760	28.21	38.39	-0.02	7.63
49.792	28.20	38.38	-0.02	7.63
49.824	28.20	38.38	-0.07	7.58
49.856	28.20	38.38	-0.07	7.58
49.888	28.23	38.40	-0.07	7.58
49.920	28.23	38.40	-0.10	7.54
49.952	28.23	38.40	-0.10	7.54
49.984	28.25	38.42	-0.10	7.54
50.016	28.25	38.42	-0.00	7.64
50.048	28.25	38.42	-0.00	7.64
50.080	28.27	38.45	-0.00	7.64
50.112	28.27	38.45	-0.11	7.54
50.144	28.27	38.45	-0.11	7.54
50.176	28.24	38.42	-0.11	7.54
50.208	28.24	38.42	-0.03	7.62
50.240	28.24	38.42	-0.03	7.62
50.272	28.24	38.42	-0.03	7.62
50.304	28.24	38.42	-0.06	7.59
50.336	28.24	38.42	-0.06	7.59
50.368	28.31	38.48	-0.06	7.59
50.400	28.31	38.48	-0.11	7.54
50.432	28.31	38.48	-0.11	7.54
50.464	28.32	38.50	-0.11	7.54
50.496	28.32	38.50	0.00	7.65
50.528	28.32	38.50	0.00	7.65
50.560	28.23	38.41	0.00	7.65
50.592	28.23	38.41	-0.10	7.55
50.624	28.23	38.41	-0.10	7.55
50.656	28.22	38.40	-0.10	7.55
50.688	28.22	38.40	-0.03	7.62
50.720	28.22	38.40	-0.03	7.62
50.752	28.31	38.49	-0.03	7.62
50.784	28.31	38.49	-0.05	7.60
50.816	28.31	38.49	-0.05	7.60
50.848	28.13	38.31	-0.05	7.60
50.880	28.13	38.31	-0.11	7.54
50.912	28.13	38.31	-0.11	7.54
50.944	28.27	38.45	-0.11	7.54
50.976	28.27	38.45	0.00	7.65
51.008	28.27	38.45	0.00	7.65
51.040	28.26	38.44	0.00	7.65
51.072	28.26	38.44	-0.10	7.55
51.104	28.26	38.44	-0.10	7.55
51.136	28.27	38.45	-0.10	7.55
51.168	28.27	38.45	-0.04	7.61
51.200	28.27	38.45	-0.04	7.61
51.232	28.31	38.49	-0.04	7.61
51.264	28.31	38.49	-0.04	7.61
51.296	28.31	38.49	-0.04	7.61
51.328	28.33	38.51	-0.04	7.61
51.360	28.33	38.51	-0.12	7.53
51.392	28.33	38.51	-0.12	7.53
51.424	28.42	38.60	-0.12	7.53
51.456	28.42	38.60	-0.00	7.64
51.488	28.42	38.60	-0.00	7.64
51.520	28.29	38.47	-0.00	7.64
51.552	28.29	38.47	-0.10	7.55
51.584	28.29	38.47	-0.10	7.55
51.616	28.24	38.42	-0.10	7.55
51.648	28.24	38.42	-0.04	7.61
51.680	28.24	38.42	-0.04	7.61
51.712	28.34	38.52	-0.04	7.61
51.744	28.34	38.52	-0.03	7.62
51.776	28.34	38.52	-0.03	7.62
51.808	28.18	38.35	-0.03	7.62
51.840	28.18	38.35	-0.12	7.53
51.872	28.18	38.35	-0.12	7.53
51.904	28.35	38.52	-0.12	7.53
51.936	28.35	38.52	-0.01	7.64
51.968	28.35	38.52	-0.01	7.64
52.000	28.33	38.50	-0.01	7.64
52.032	28.33	38.50	-0.10	7.55
52.064	28.33	38.50	-0.10	7.55
52.096	28.37	38.55	-0.10	7.55
52.128	28.37	38.55	-0.05	7.60
52.160	28.37	38.55	-0.05	7.60
52.192	28.34	38.51	-0.05	7.60
52.224	28.34	38.51	-0.02	7.63
52.256	28.34	38.51	-0.02	7.63
52.288	28.32	38.50	-0.02	7.63
52.320	28.32	38.50	-0.11	7.53
52.352	28.32	38.50	-0.11	7.53
52.384	28.35	38.53	-0.11	7.53
52.416	28.35	38.53	-0.01	7.64
52.448	28.35	38.53	-0.01	7.64
52.480	28.23	38.41	-0.01	7.64
52.512	28.23	38.41	-0.09	7.55
52.544	28.23	38.41	-0.09	7.55
52.576	28.23	38.41	-0.09	7.55
52.608	28.23	38.41	-0.06	7.59
52.640	28.23	38.41	-0.06	7.59
52.672	28.28	38.46	-0.06	7.59
52.704	28.28	38.46	-0.02	7.63
52.736	28.28	38.46	-0.02	7.63
52.768	28.17	38.34	-0.02	7.63
52.800	28.17	38.34	-0.12	7.53
52.832	28.17	38.34	-0.12	7.53
52.864	28.27	38.44	-0.12	7.53
52.896	28.27	38.44	-0.01	7.63
52.928	28.27	38.44	-0.01	7.63
52.960	28.29	38.47	-0.01	7.63
52.992	28.29	38.47	-0.09	7.55
53.024	28.29	38.47	-0.09	7.55
53.056	28.24	38.42	-0.09	7.55
53.088	28.24	38.42	-0.07	7.58
53.120	28.24	38.42	-0.07	7.58
53.152	28.30	38.48	-0.07	7.58
53.184	28.30	38.48	-0.01	7.63
53.216	28.30	38.48	-0.01	7.63
53.248	28.34	38.52	-0.01	7.63
53.280	28.34	38.52	-0.12	7.53
53.312	28.34	38.52	-0.12	7.53
53.344	28.26	38.44	-0.12	7.53
53.376	28.26	38.44	-0.02	7.63
53.408	28.26	38.44	-0.02	7.63
53.440	28.13	38.30	-0.02	7.63
53.472	28.13	38.30	-0.09	7.56
53.504	28.13	38.30	-0.09	7.56
53.536	28.25	38.43	-0.09	7.56
53.568	28.25	38.43	-0.08	7.57
53.600	28.25	38.43	-0.08	7.57
53.632	28.29	38.47	-0.08	7.57
53.664	28.29	38.47	-0.01	7.64
53.696	28.29	38.47	-0.01	7.64
53.728	28.28	38.46	-0.01	7.64
53.760	28.28	38.46	-0.12	7.53
53.792	28.28	38.46	-0.12	7.53
53.824	28.24	38.41	-0.12	7.53
53.856	28.24	38.41	-0.02	7.63
53.888	28.24	38.41	-0.02	7.63
53.920	28.25	38.43	-0.02	7.63
53.952	28.25	38.43	-0.08	7.57
53.984	28.25	38.43	-0.08	7.57
54.016	28.26	38.44	-0.08	7.57
54.048	28.26	38.44	-0.08	7.57
54.080	28.26	38.44	-0.08	7.57
54.112	28.27	38.45	-0.08	7.57
54.144	28.27	38.45	-0.01	7.64
54.176	28.27	38.45	-0.01	7.64
54.208	28.29	38.47	-0.01	7.64
54.240	28.29	38.47	-0.11	7.54
54.272	28.29	38.47	-0.11	7.54
54.304	28.28	38.45	-0.11	7.54
54.336	28.28	38.45	-0.02	7.62
54.368	28.28	38.45	-0.02	7.62
54.400	28.14	38.32	-0.02	7.62
54.432	28.14	38.32	-0.07	7.58
54.464	28.14	38.32	-0.07	7.58
54.496	28.24	38.42	-0.07	7.58
54.528	28.24	38.42	-0.10	7.55
54.560	28.24	38.42	-0.10	7.55
54.592	28.22	38.39	-0.10	7.55
54.624	28.22	38.39	-0.00	7.64
54.656	28.22	38.39	-0.00	7.64
54.688	28.20	38.38	-0.00	7.64
54.720	28.20	38.38	-0.11	7.54
54.752	28.20	38.38	-0.11	7.54
54.784	28.35	38.53	-0.11	7.54
54.816	28.35	38.53	-0.03	7.62
54.848	28.35	38.53	-0.03	7.62
54.880	28.19	38.37	-0.03	7.62
54.912	28.19	38.37	-0.06	7.59
54.944	28.19	38.37	-0.06	7.59
54.976	28.23	38.41	-0.06	7.59
55.008	28.23	38.41	-0.10	7.55
55.040	28.23	38.41	-0.10	7.55
55.072	28.22	38.40	-0.10	7.55
55.104	28.22	38.40	-0.01	7.64
55.136	28.22	38.40	-0.01	7.64
55.168	28.33	38.51	-0.01	7.64
55.200	28.33	38.51	-0.10	7.54
55.232	28.33	38.51	-0.10	7.54
55.264	28.20	38.37	-0.10	7.54
55.296	28.20	38.37	-0.03	7.62
55.328	28.20	38.37	-0.03	7.62
55.360	28.18	38.35	-0.03	7.62
55.392	28.18	38.35	-0.05	7.60
55.424	28.18	38.35	-0.05	7.60
55.456	28.26	38.44	-0.05	7.60
55.488	28.26	38.44	-0.11	7.54
55.520	28.26	38.44	-0.11	7.54
55.552	28.20	38.38	-0.11	7.54
55.584	28.20	38.38	-0.00	7.65
55.616	28.20	38.38	-0.00	7.65
55.648	28.24	38.42	-0.00	7.65
55.680	28.24	38.42	-0.10	7.55
55.712	28.24	38.42	-0.10	7.55
55.744	28.22	38.39	-0.10	7.55
55.776	28.22	38.39	-0.03	7.62
55.808	28.22	38.39	-0.03	7.62
55.840	28.23	38.41	-0.03	7.62
55.872	28.23	38.41	-0.04	7.61
55.904	28.23	38.41	-0.04	7.61
55.936	28.23	38.41	-0.04	7.61
55.968	28.23	38.41	-0.11	7.54
56.000	28.23	38.41	-0.11	7.54
56.032	28.25	38.43	-0.11	7.54
56.064	28.25	38.43	-0.00	7.64
56.096	28.25	38.43	-0.00	7.64
56.128	28.41	38.59	-0.00	7.64
56.160	28.41	38.59	-0.10	7.55
56.192	28.41	38.59	-0.10	7.55
56.224	28.21	38.39	-0.10	7.55
56.256	28.21	38.39	-0.04	7.61
56.288	28.21	38.39	-0.04	7.61
56.320	28.23	38.41	-0.04	7.61
56.352	28.23	38.41	-0.03	7.62
56.384	28.23	38.41	-0.03	7.62
56.416	28.28	38.46	-0.03	7.62
56.448	28.28	38.46	-0.11	7.54
56.480	28.28	38.46	-0.11	7.54
56.512	28.18	38.35	-0.11	7.54
56.544	28.18	38.35	-0.01	7.64
56.576	28.18	38.35	-0.01	7.64
56.608	28.24	38.42	-0.01	7.64
56.640	28.24	38.42	-0.10	7.55
56.672	28.24	38.42	-0.10	7.55
56.704	28.28	38.46	-0.10	7.55
56.736	28.28	38.46	-0.05	7.60
56.768	28.28	38.46	-0.05	7.60
56.800	28.22	38.39	-0.05	7.60
56.832	28.22	38.39	-0.02	7.62
56.864	28.22	38.39	-0.02	7.62
56.896	28.26	38.44	-0.02	7.62
56.928	28.26	38.44	-0.11	7.53
56.960	28.26	38.44	-0.11	7.53
56.992	28.27	38.45	-0.11	7.53
57.024	28.27	38.45	-0.01	7.64
57.056	28.27	38.45	-0.01	7.64
57.088	28.34	38.52	-0.01	7.64
57.120	28.34	38.52	-0.09	7.55
57.152	28.34	38.52	-0.09	7.55
57.184	28.21	38.39	-0.09	7.55
57.216	28.21	38.39	-0.06	7.59
57.248	28.21	38.39	-0.06	7.59
57.280	28.19	38.37	-0.06	7.59
57.312	28.19	38.37	-0.02	7.63
57.344	28.19	38.37	-0.02	7.63
57.376	28.25	38.43	-0.02	7.63
57.408	28.25	38.43	-0.12	7.53
57.440	28.25	38.43	-0.12	7.53
57.472	28.18	38.36	-0.12	7.53
57.504	28.18	38.36	-0.01	7.63
57.536	28.18	38.36	-0.01	7.63
57.568	28.20	38.38	-0.01	7.63
57.600	28.20	38.38	-0.10	7.55
57.632	28.20	38.38	-0.10	7.55
57.664	28.29	38.47	-0.10	7.55
57.696	28.29	38.47	-0.07	7.58
57.728	28.29	38.47	-0.07	7.58
57.760	28.25	38.43	-0.07	7.58
57.792	28.25	38.43	-0.01	7.64
57.824	28.25	38.43	-0.01	7.64
57.856	28.34	38.52	-0.01	7.64
57.888	28.34	38.52	-0.12	7.53
57.920	28.34	38.52	-0.12	7.53
57.952	28.31	38.49	-0.12	7.53
57.984	28.31	38.49	-0.02	7.63
58.016	28.31	38.49	-0.02	7.63
58.048	28.26	38.44	-0.02	7.63
58.080	28.26	38.44	-0.09	7.56
58.112	28.26	38.44	-0.09	7.56
58.144	28.16	38.33	-0.09	7.56
58.176	28.16	38.33	-0.07	7.58
58.208	28.16	38.33	-0.07	7.58
58.240	28.34	38.52	-0.07	7.58
58.272	28.34	38.52	-0.01	7.64
58.304	28.34	38.52	-0.01	7.64
58.336	28.23	38.40	-0.01	7.64
58.368	28.23	38.40	-0.12	7.53
58.400	28.23	38.40	-0.12	7.53
58.432	28.16	38.34	-0.12	7.53
58.464	28.16	38.34	-0.02	7.63
58.496	28.16	38.34	-0.02	7.63
58.528	28.32	38.50	-0.02	7.63
58.560	28.32	38.50	-0.09	7.56
58.592	28.32	38.50	-0.09	7.56
58.624	28.22	38.39	-0.09	7.56
58.656	28.22	38.39	-0.08	7.57
58.688	28.22	38.39	-0.08	7.57
58.720	28.22	38.40	-0.08	7.57
58.752	28.22	38.40	-0.01	7.64
58.784	28.22	38.40	-0.01	7.64
58.816	28.18	38.36	-0.01	7.64
58.848	28.18	38.36	-0.11	7.53
58.880	28.18	38.36	-0.11	7.53
58.912	28.33	38.50	-0.11	7.53
58.944	28.33	38.50	-0.02	7.62
58.976	28.33	38.50	-0.02	7.62
59.008	28.18	38.35	-0.02	7.62
59.040	28.18	38.35	-0.07	7.58
59.072	28.18	38.35	-0.07	7.58
59.104	28.26	38.44	-0.07	7.58
59.136	28.26	38.44	-0.10	7.55
59.168	28.26	38.44	-0.10	7.55
59.200	28.22	38.40	-0.10	7.55
59.232	28.22	38.40	-0.01	7.64
59.264	28.22	38.40	-0.01	7.64
59.296	28.22	38.40	-0.01	7.64
59.328	28.22	38.40	-0.11	7.54
59.360	28.22	38.40	-0.11	7.54
59.392	28.19	38.37	-0.11	7.54
59.424	28.19	38.37	-0.02	7.63
59.456	28.19	38.37	-0.02	7.63
59.488	28.23	38.41	-0.02	7.63
59.520	28.23	38.41	-0.06	7.58
59.552	28.23	38.41	-0.06	7.58
59.584	28.21	38.39	-0.06	7.58
59.616	28.21	38.39	-0.10	7.55
59.648	28.21	38.39	-0.10	7.55
59.680	28.20	38.37	-0.10	7.55
59.712	28.20	38.37	-0.01	7.64
59.744	28.20	38.37	-0.01	7.64
59.776	28.30	38.48	-0.01	7.64
59.808	28.30	38.48	-0.11	7.54
59.840	28.30	38.48	-0.11	7.54
59.872	28.33	38.51	-0.11	7.54
59.904	28.33	38.51	-0.03	7.62
59.936	28.33	38.51	-0.03	7.62
59.968	28.18	38.36	-0.03	7.62
60.000	28.18	38.36	-0.06	7.59
60.032	28.18	38.36	-0.06	7.59
60.064	28.20	38.38	-0.06	7.59
60.096	28.20	38.38	-0.10	7.54
60.128	28.20	38.38	-0.10	7.54
60.160	28.27	38.45	-0.10	7.54
60.192	28.27	38.45	0.00	7.65
60.224	28.27	38.45	0.00	7.65
60.256	28.19	38.37	0.00	7.65
60.288	28.19	38.37	-0.10	7.55
60.320	28.19	38.37	-0.10	7.55
60.352	28.28	38.46	-0.10	7.55
60.384	28.28	38.46	-0.03	7.62
60.416	28.28	38.46	-0.03	7.62
60.448	28.24	38.42	-0.03	7.62
60.480	28.24	38.42	-0.05	7.60
60.512	28.24	38.42	-0.05	7.60
60.544	28.22	38.40	-0.05	7.60
60.576	28.22	38.40	-0.11	7.54
60.608	28.22	38.40	-0.11	7.54
60.640	28.30	38.48	-0.11	7.54
60.672	28.30	38.48	0.00	7.65
60.704	28.30	38.48	0.00	7.65
60.736	28.26	38.44	0.00	7.65
60.768	28.26	38.44	-0.10	7.55
60.800	28.26	38.44	-0.10	7.55
60.832	28.43	38.61	-0.10	7.55
60.864	28.43	38.61	-0.03	7.62
60.896	28.43	38.61	-0.03	7.62
60.928	28.24	38.42	-0.03	7.62
60.960	28.24	38.42	-0.04	7.61
60.992	28.24	38.42	-0.04	7.61
61.024	28.22	38.40	-0.04	7.61
61.056	28.22	38.40	-0.11	7.54
61.088	28.22	38.40	-0.11	7.54
61.120	28.23	38.41	-0.11	7.54
61.152	28.23	38.41	-0.00	7.64
61.184	28.23	38.41	-0.00	7.64
61.216	28.11	38.29	-0.00	7.64
61.248	28.11	38.29	-0.10	7.55
61.280	28.11	38.29	-0.10	7.55
61.312	28.34	38.52	-0.10	7.55
61.344	28.34	38.52	-0.04	7.61
61.376	28.34	38.52	-0.04	7.61
61.408	28.24	38.42	-0.04	7.61
61.440	28.24	38.42	-0.04	7.61
61.472	28.24	38.42	-0.04	7.61
61.504	28.27	38.45	-0.04	7.61
61.536	28.27	38.45	-0.11	7.53
61.568	28.27	38.45	-0.11	7.53
61.600	28.38	38.55	-0.11	7.53
61.632	28.38	38.55	-0.01	7.64
61.664	28.38	38.55	-0.01	7.64
61.696	28.30	38.48	-0.01	7.64
61.728	28.30	38.48	-0.10	7.55
61.760	28.30	38.48	-0.10	7.55
61.792	28.31	38.49	-0.10	7.55
61.824	28.31	38.49	-0.05	7.60
61.856	28.31	38.49	-0.05	7.60
61.888	28.20	38.38	-0.05	7.60
61.920	28.20	38.38	-0.02	7.62
61.952	28.20	38.38	-0.02	7.62
61.984	28.27	38.45	-0.02	7.62
62.016	28.27	38.45	-0.11	7.53
62.048	28.27	38.45	-0.11	7.53
62.080	28.29	38.47	-0.11	7.53
62.112	28.29	38.47	-0.01	7.64
62.144	28.29	38.47	-0.01	7.64
62.176	28.22	38.40	-0.01	7.64
62.208	28.22	38.40	-0.09	7.55
62.240	28.22	38.40	-0.09	7.55
62.272	28.33	38.51	-0.09	7.55
62.304	28.33	38.51	-0.05	7.59
62.336	28.33	38.51	-0.05	7.59
62.368	28.26	38.43	-0.05	7.59
62.400	28.26	38.43	-0.02	7.63
62.432	28.26	38.43	-0.02	7.63
62.464	28.18	38.36	-0.02	7.63
62.496	28.18	38.36	-0.12	7.53
62.528	28.18	38.36	-0.12	7.53
62.560	28.33	38.51	-0.12	7.53
62.592	28.33	38.51	-0.01	7.64
62.624	28.33	38.51	-0.01	7.64
62.656	28.32	38.50	-0.01	7.64
62.688	28.32	38.50	-0.10	7.55
62.720	28.32	38.50	-0.10	7.55
62.752	28.27	38.44	-0.10	7.55
62.784	28.27	38.44	-0.06	7.59
62.816	28.27	38.44	-0.06	7.59
62.848	28.08	38.25	-0.06	7.59
62.880	28.08	38.25	-0.02	7.63
62.912	28.08	38.25	-0.02	7.63
62.944	28.18	38.35	-0.02	7.63
62.976	28.18	38.35	-0.12	7.53
63.008	28.18	38.35	-0.12	7.53
63.040	28.16	38.34	-0.12	7.53
63.072	28.16	38.34	-0.02	7.63
63.104	28.16	38.34	-0.02	7.63
63.136	28.16	38.33	-0.02	7.63
63.168	28.16	38.33	-0.09	7.56
63.200	28.16	38.33	-0.09	7.56
63.232	28.21	38.39	-0.09	7.56
63.264	28.21	38.39	-0.07	7.58
63.296	28.21	38.39	-0.07	7.58
63.328	28.18	38.36	-0.07	7.58
63.360	28.18	38.36	-0.01	7.64
63.392	28.18	38.36	-0.01	7.64
63.424	28.22	38.39	-0.01	7.64
63.456	28.22	38.39	-0.12	7.53
63.488	28.22	38.39	-0.12	7.53
63.520	28.16	38.34	-0.12	7.53
63.552	28.16	38.34	-0.02	7.63
63.584	28.16	38.34	-0.02	7.63
63.616	28.28	38.45	-0.02	7.63
63.648	28.28	38.45	-0.09	7.56
63.680	28.28	38.45	-0.09	7.56
63.712	28.20	38.38	-0.09	7.56
63.744	28.20	38.38	-0.07	7.58
63.776	28.20	38.38	-0.07	7.58
63.808	28.17	38.34	-0.07	7.58
63.840	28.17	38.34	-0.01	7.64
63.872	28.17	38.34	-0.01	7.64
63.904	28.22	38.40	-0.01	7.64
63.936	28.22	38.40	-0.12	7.53
63.968	28.22	38.40	-0.12	7.53
64.000	28.15	38.33	-0.12	7.53
64.032	28.15	38.33	-0.02	7.62
64.064	28.15	38.33	-0.02	7.62
64.096	28.26	38.43	-0.02	7.62
64.128	28.26	38.43	-0.08	7.57
64.160	28.26	38.43	-0.08	7.57
64.192	28.22	38.40	-0.08	7.57
64.224	28.22	38.40	-0.08	7.57
64.256	28.22	38.40	-0.08	7.57
64.288	28.22	38.40	-0.08	7.57
64.320	28.22	38.40	-0.00	7.64
64.352	28.22	38.40	-0.00	7.64
64.384	28.21	38.39	-0.00	7.64
64.416	28.21	38.39	-0.11	7.53
64.448	28.21	38.39	-0.11	7.53
64.480	28.14	38.31	-0.11	7.53
64.512	28.14	38.31	-0.02	7.63
64.544	28.14	38.31	-0.02	7.63
64.576	28.40	38.58	-0.02	7.63
64.608	28.40	38.58	-0.08	7.57
64.640	28.40	38.58	-0.08	7.57
64.672	28.19	38.37	-0.08	7.57
64.704	28.19	38.37	-0.09	7.56
64.736	28.19	38.37	-0.09	7.56
64.768	28.19	38.37	-0.09	7.56
64.800	28.19	38.37	-0.01	7.64
64.832	28.19	38.37	-0.01	7.64
64.864	28.25	38.43	-0.01	7.64
64.896	28.25	38.43	-0.11	7.54
64.928	28.25	38.43	-0.11	7.54
64.960	28.16	38.34	-0.11	7.54
64.992	28.16	38.34	-0.02	7.63
65.024	28.16	38.34	-0.02	7.63
65.056	28.23	38.41	-0.02	7.63
65.088	28.23	38.41	-0.07	7.58
65.120	28.23	38.41	-0.07	7.58
65.152	28.20	38.38	-0.07	7.58
65.184	28.20	38.38	-0.09	7.55
65.216	28.20	38.38	-0.09	7.55
65.248	28.15	38.33	-0.09	7.55
65.280	28.15	38.33	-0.01	7.64
65.312	28.15	38.33	-0.01	7.64
65.344	28.09	38.26	-0.01	7.64
65.376	28.09	38.26	-0.11	7.54
65.408	28.09	38.26	-0.11	7.54
65.440	28.17	38.35	-0.11	7.54
65.472	28.17	38.35	-0.03	7.62
65.504	28.17	38.35	-0.03	7.62
65.536	28.32	38.50	-0.03	7.62
65.568	28.32	38.50	-0.07	7.58
65.600	28.32	38.50	-0.07	7.58
65.632	28.05	38.23	-0.07	7.58
65.664	28.05	38.23	-0.10	7.55
65.696	28.05	38.23	-0.10	7.55
65.728	28.19	38.37	-0.10	7.55
65.760	28.19	38.37	-0.00	7.64
65.792	28.19	38.37	-0.00	7.64
65.824	28.14	38.32	-0.00	7.64
65.856	28.14	38.32	-0.11	7.54
65.888	28.14	38.32	-0.11	7.54
65.920	28.14	38.32	-0.11	7.54
65.952	28.14	38.32	-0.02	7.62
65.984	28.14	38.32	-0.02	7.62
66.016	28.09	38.26	-0.02	7.62
66.048	28.09	38.26	-0.06	7.59
66.080	28.09	38.26	-0.06	7.59
66.112	28.16	38.34	-0.06	7.59
66.144	28.16	38.34	-0.10	7.55
66.176	28.16	38.34	-0.10	7.55
66.208	28.32	38.50	-0.10	7.55
66.240	28.32	38.50	-0.01	7.64
66.272	28.32	38.50	-0.01	7.64
66.304	28.21	38.39	-0.01	7.64
66.336	28.21	38.39	-0.10	7.55
66.368	28.21	38.39	-0.10	7.55
66.400	28.19	38.37	-0.10	7.55
66.432	28.19	38.37	-0.02	7.62
66.464	28.19	38.37	-0.02	7.62
66.496	28.30	38.48	-0.02	7.62
66.528	28.30	38.48	-0.05	7.60
66.560	28.30	38.48	-0.05	7.60
66.592	28.07	38.25	-0.05	7.60
66.624	28.07	38.25	-0.11	7.54
66.656	28.07	38.25	-0.11	7.54
66.688	28.16	38.34	-0.11	7.54
66.720	28.16	38.34	0.00	7.65
66.752	28.16	38.34	0.00	7.65
66.784	28.15	38.33	0.00	7.65
66.816	28.15	38.33	-0.10	7.55
66.848	28.15	38.33	-0.10	7.55
66.880	28.10	38.28	-0.10	7.55
66.912	28.10	38.28	-0.03	7.62
66.944	28.10	38.28	-0.03	7.62
66.976	28.25	38.43	-0.03	7.62
67.008	28.25	38.43	-0.05	7.60
67.040	28.25	38.43	-0.05	7.60
67.072	28.16	38.33	-0.05	7.60
67.104	28.16	38.33	-0.10	7.54
67.136	28.16	38.33	-0.10	7.54
67.168	28.25	38.43	-0.10	7.54
67.200	28.25	38.43	0.00	7.65
67.232	28.25	38.43	0.00	7.65
67.264	28.19	38.36	0.00	7.65
67.296	28.19	38.36	-0.10	7.55
67.328	28.19	38.36	-0.10	7.55
67.360	28.22	38.40	-0.10	7.55
67.392	28.22	38.40	-0.03	7.62
67.424	28.22	38.40	-0.03	7.62
67.456	28.25	38.43	-0.03	7.62
67.488	28.25	38.43	-0.04	7.61
67.520	28.25	38.43	-0.04	7.61
67.552	28.16	38.34	-0.04	7.61
67.584	28.16	38.34	-0.11	7.54
67.616	28.16	38.34	-0.11	7.54
67.648	28.18	38.36	-0.11	7.54
67.680	28.18	38.36	0.00	7.65
67.712	28.18	38.36	0.00	7.65
67.744	28.25	38.43	0.00	7.65
67.776	28.25	38.43	-0.10	7.55
67.808	28.25	38.43	-0.10	7.55
67.840	28.15	38.32	-0.10	7.55
67.872	28.15	38.32	-0.04	7.61
67.904	28.15	38.32	-0.04	7.61
67.936	28.22	38.40	-0.04	7.61
67.968	28.22	38.40	-0.04	7.61
68.000	28.22	38.40	-0.04	7.61
68.032	28.19	38.36	-0.04	7.61
68.064	28.19	38.36	-0.11	7.54
68.096	28.19	38.36	-0.11	7.54
68.128	28.24	38.42	-0.11	7.54
68.160	28.24	38.42	-0.00	7.65
68.192	28.24	38.42	-0.00	7.65
68.224	28.22	38.39	-0.00	7.65
68.256	28.22	38.39	-0.09	7.56
68.288	28.22	38.39	-0.09	7.56
68.320	28.26	38.44	-0.09	7.56
68.352	28.26	38.44	-0.04	7.61
68.384	28.26	38.44	-0.04	7.61
68.416	28.22	38.40	-0.04	7.61
68.448	28.22	38.40	-0.04	7.61
68.480	28.22	38.40	-0.04	7.61
68.512	28.15	38.33	-0.04	7.61
68.544	28.15	38.33	-0.11	7.54
68.576	28.15	38.33	-0.11	7.54
68.608	28.26	38.43	-0.11	7.54
68.640	28.26	38.43	-0.01	7.64
68.672	28.26	38.43	-0.01	7.64
68.704	28.18	38.35	-0.01	7.64
68.736	28.18	38.35	-0.09	7.55
68.768	28.18	38.35	-0.09	7.55
68.800	28.18	38.36	-0.09	7.55
68.832	28.18	38.36	-0.04	7.61
68.864	28.18	38.36	-0.04	7.61
68.896	28.15	38.33	-0.04	7.61
68.928	28.15	38.33	-0.03	7.62
68.960	28.15	38.33	-0.03	7.62
68.992	28.10	38.28	-0.03	7.62
69.024	28.10	38.28	-0.11	7.53
69.056	28.10	38.28	-0.11	7.53
69.088	28.20	38.38	-0.11	7.53
69.120	28.20	38.38	-0.00	7.64
69.152	28.20	38.38	-0.00	7.64
69.184	28.10	38.28	-0.00	7.64
69.216	28.10	38.28	-0.10	7.55
69.248	28.10	38.28	-0.10	7.55
69.280	28.28	38.45	-0.10	7.55
69.312	28.28	38.45	-0.05	7.60
69.344	28.28	38.45	-0.05	7.60
69.376	28.18	38.35	-0.05	7.60
69.408	28.18	38.35	-0.02	7.62
69.440	28.18	38.35	-0.02	7.62
69.472	28.03	38.21	-0.02	7.62
69.504	28.03	38.21	-0.11	7.54
69.536	28.03	38.21	-0.11	7.54
69.568	28.19	38.37	-0.11	7.54
69.600	28.19	38.37	-0.01	7.64
69.632	28.19	38.37	-0.01	7.64
69.664	28.02	38.20	-0.01	7.64
69.696	28.02	38.20	-0.10	7.55
69.728	28.02	38.20	-0.10	7.55
69.760	28.15	38.33	-0.10	7.55
69.792	28.15	38.33	-0.05	7.60
69.824	28.15	38.33	-0.05	7.60
69.856	28.21	38.38	-0.05	7.60
69.888	28.21	38.38	-0.02	7.63
69.920	28.21	38.38	-0.02	7.63
69.952	28.11	38.29	-0.02	7.63
69.984	28.11	38.29	-0.11	7.54
70.016	28.11	38.29	-0.11	7.54
70.048	28.17	38.34	-0.11	7.54
70.080	28.17	38.34	-0.01	7.64
70.112	28.17	38.34	-0.01	7.64
70.144	28.15	38.33	-0.01	7.64
70.176	28.15	38.33	-0.10	7.55
70.208	28.15	38.33	-0.10	7.55
70.240	28.21	38.39	-0.10	7.55
70.272	28.21	38.39	-0.05	7.60
70.304	28.21	38.39	-0.05	7.60
70.336	28.16	38.34	-0.05	7.60
70.368	28.16	38.34	-0.02	7.63
70.400	28.16	38.34	-0.02	7.63
70.432	28.19	38.36	-0.02	7.63
70.464	28.19	38.36	-0.11	7.53
70.496	28.19	38.36	-0.11	7.53
70.528	28.20	38.38	-0.11	7.53
70.560	28.20	38.38	-0.01	7.64
70.592	28.20	38.38	-0.01	7.64
70.624	28.08	38.25	-0.01	7.64
70.656	28.08	38.25	-0.10	7.55
70.688	28.08	38.25	-0.10	7.55
70.720	28.16	38.33	-0.10	7.55
70.752	28.16	38.33	-0.06	7.59
70.784	28.16	38.33	-0.06	7.59
70.816	28.10	38.28	-0.06	7.59
70.848	28.10	38.28	-0.02	7.63
70.880	28.10	38.28	-0.02	7.63
70.912	28.08	38.26	-0.02	7.63
70.944	28.08	38.26	-0.11	7.53
70.976	28.08	38.26	-0.11	7.53
71.008	28.10	38.27	-0.11	7.53
71.040	28.10	38.27	-0.01	7.64
71.072	28.10	38.27	-0.01	7.64
71.104	28.11	38.29	-0.01	7.64
71.136	28.11	38.29	-0.09	7.55
71.168	28.11	38.29	-0.09	7.55
71.200	28.27	38.45	-0.09	7.55
71.232	28.27	38.45	-0.06	7.59
71.264	28.27	38.45	-0.06	7.59
71.296	28.01	38.18	-0.06	7.59
71.328	28.01	38.18	-0.02	7.63
71.360	28.01	38.18	-0.02	7.63
71.392	28.10	38.28	-0.02	7.63
71.424	28.10	38.28	-0.11	7.53
71.456	28.10	38.28	-0.11	7.53
71.488	28.18	38.36	-0.11	7.53
71.520	28.18	38.36	-0.01	7.64
71.552	28.18	38.36	-0.01	7.64
71.584	28.04	38.22	-0.01	7.64
71.616	28.04	38.22	-0.10	7.55
71.648	28.04	38.22	-0.10	7.55
71.680	28.11	38.29	-0.10	7.55
71.712	28.11	38.29	-0.06	7.59
71.744	28.11	38.29	-0.06	7.59
71.776	28.10	38.28	-0.06	7.59
71.808	28.10	38.28	-0.02	7.63
71.840	28.10	38.28	-0.02	7.63
71.872	28.14	38.32	-0.02	7.63
71.904	28.14	38.32	-0.11	7.54
71.936	28.14	38.32	-0.11	7.54
71.968	28.12	38.30	-0.11	7.54
72.000	28.12	38.30	-0.01	7.63
72.032	28.12	38.30	-0.01	7.63
72.064	28.24	38.42	-0.01	7.63
72.096	28.24	38.42	-0.10	7.55
72.128	28.24	38.42	-0.10	7.55
72.160	28.10	38.28	-0.10	7.55
72.192	28.10	38.28	-0.06	7.59
72.224	28.10	38.28	-0.06	7.59
72.256	28.09	38.26	-0.06	7.59
72.288	28.09	38.26	-0.02	7.63
72.320	28.09	38.26	-0.02	7.63
72.352	28.08	38.25	-0.02	7.63
72.384	28.08	38.25	-0.12	7.53
72.416	28.08	38.25	-0.12	7.53
72.448	28.12	38.30	-0.12	7.53
72.480	28.12	38.30	-0.01	7.64
72.512	28.12	38.30	-0.01	7.64
72.544	28.06	38.24	-0.01	7.64
72.576	28.06	38.24	-0.09	7.56
72.608	28.06	38.24	-0.09	7.56
72.640	28.18	38.36	-0.09	7.56
72.672	28.18	38.36	-0.06	7.59
72.704	28.18	38.36	-0.06	7.59
72.736	28.09	38.27	-0.06	7.59
72.768	28.09	38.27	-0.02	7.63
72.800	28.09	38.27	-0.02	7.63
72.832	28.11	38.29	-0.02	7.63
72.864	28.11	38.29	-0.12	7.53
72.896	28.11	38.29	-0.12	7.53
72.928	28.14	38.31	-0.12	7.53
72.960	28.14	38.31	-0.01	7.64
72.992	28.14	38.31	-0.01	7.64
73.024	28.21	38.38	-0.01	7.64
73.056	28.21	38.38	-0.09	7.55
73.088	28.21	38.38	-0.09	7.55
73.120	28.16	38.34	-0.09	7.55
73.152	28.16	38.34	-0.06	7.59
73.184	28.16	38.34	-0.06	7.59
73.216	28.06	38.24	-0.06	7.59
73.248	28.06	38.24	-0.01	7.64
73.280	28.06	38.24	-0.01	7.64
73.312	28.20	38.37	-0.01	7.64
73.344	28.20	38.37	-0.12	7.53
73.376	28.20	38.37	-0.12	7.53
73.408	28.11	38.28	-0.12	7.53
73.440	28.11	38.28	-0.01	7.64
73.472	28.11	38.28	-0.01	7.64
73.504	28.17	38.35	-0.01	7.64
73.536	28.17	38.35	-0.09	7.56
73.568	28.17	38.35	-0.09	7.56
73.600	28.10	38.28	-0.09	7.56
73.632	28.10	38.28	-0.06	7.58
73.664	28.10	38.28	-0.06	7.58
73.696	28.16	38.34	-0.06	7.58
73.728	28.16	38.34	-0.01	7.63
73.760	28.16	38.34	-0.01	7.63
73.792	28.08	38.26	-0.01	7.63
73.824	28.08	38.26	-0.12	7.53
73.856	28.08	38.26	-0.12	7.53
73.888	28.10	38.28	-0.12	7.53
73.920	28.10	38.28	-0.02	7.63
73.952	28.10	38.28	-0.02	7.63
73.984	28.18	38.35	-0.02	7.63
74.016	28.18	38.35	-0.09	7.56
74.048	28.18	38.35	-0.09	7.56
74.080	27.93	38.11	-0.09	7.56
74.112	27.93	38.11	-0.06	7.59
74.144	27.93	38.11	-0.06	7.59
74.176	28.09	38.27	-0.06	7.59
74.208	28.09	38.27	-0.01	7.64
74.240	28.09	38.27	-0.01	7.64
74.272	28.13	38.31	-0.01	7.64
74.304	28.13	38.31	-0.12	7.53
74.336	28.13	38.31	-0.12	7.53
74.368	27.99	38.17	-0.12	7.53
74.400	27.99	38.17	-0.01	7.63
74.432	27.99	38.17	-0.01	7.63
74.464	28.07	38.25	-0.01	7.63
74.496	28.07	38.25	-0.09	7.56
74.528	28.07	38.25	-0.09	7.56
74.560	28.12	38.30	-0.09	7.56
74.592	28.12	38.30	-0.06	7.58
74.624	28.12	38.30	-0.06	7.58
74.656	28.01	38.19	-0.06	7.58
74.688	28.01	38.19	-0.02	7.63
74.720	28.01	38.19	-0.02	7.63
74.752	28.09	38.27	-0.02	7.63
74.784	28.09	38.27	-0.12	7.53
74.816	28.09	38.27	-0.12	7.53
74.848	28.04	38.22	-0.12	7.53
74.880	28.04	38.22	-0.01	7.63
74.912	28.04	38.22	-0.01	7.63
74.944	28.22	38.40	-0.01	7.63
74.976	28.22	38.40	-0.09	7.56
75.008	28.22	38.40	-0.09	7.56
75.040	28.03	38.21	-0.09	7.56
75.072	28.03	38.21	-0.06	7.59
75.104	28.03	38.21	-0.06	7.59
75.136	28.10	38.27	-0.06	7.59
75.168	28.10	38.27	-0.01	7.63
75.200	28.10	38.27	-0.01	7.63
75.232	28.13	38.30	-0.01	7.63
75.264	28.13	38.30	-0.11	7.53
75.296	28.13	38.30	-0.11	7.53
75.328	27.96	38.14	-0.11	7.53
75.360	27.96	38.14	-0.02	7.63
75.392	27.96	38.14	-0.02	7.63
75.424	28.10	38.28	-0.02	7.63
75.456	28.10	38.28	-0.09	7.56
75.488	28.10	38.28	-0.09	7.56
75.520	28.04	38.22	-0.09	7.56
75.552	28.04	38.22	-0.06	7.59
75.584	28.04	38.22	-0.06	7.59
75.616	28.03	38.21	-0.06	7.59
75.648	28.03	38.21	-0.01	7.64
75.680	28.03	38.21	-0.01	7.64
75.712	28.12	38.30	-0.01	7.64
75.744	28.12	38.30	-0.12	7.53
75.776	28.12	38.30	-0.12	7.53
75.808	28.08	38.26	-0.12	7.53
75.840	28.08	38.26	-0.01	7.63
75.872	28.08	38.26	-0.01	7.63
75.904	28.15	38.33	-0.01	7.63
75.936	28.15	38.33	-0.09	7.56
75.968	28.15	38.33	-0.09	7.56
76.000	28.00	38.18	-0.09	7.56
76.032	28.00	38.18	-0.06	7.59
76.064	28.00	38.18	-0.06	7.59
76.096	28.04	38.21	-0.06	7.59
76.128	28.04	38.21	-0.02	7.63
76.160	28.04	38.21	-0.02	7.63
76.192	28.09	38.27	-0.02	7.63
76.224	28.09	38.27	-0.11	7.53
76.256	28.09	38.27	-0.11	7.53
76.288	27.97	38.15	-0.11	7.53
76.320	27.97	38.15	-0.01	7.63
76.352	27.97	38.15	-0.01	7.63
76.384	28.06	38.24	-0.01	7.63
76.416	28.06	38.24	-0.09	7.55
76.448	28.06	38.24	-0.09	7.55
76.480	27.97	38.15	-0.09	7.55
76.512	27.97	38.15	-0.06	7.59
76.544	27.97	38.15	-0.06	7.59
76.576	28.03	38.20	-0.06	7.59
76.608	28.03	38.20	-0.02	7.63
76.640	28.03	38.20	-0.02	7.63
76.672	28.02	38.20	-0.02	7.63
76.704	28.02	38.20	-0.11	7.54
76.736	28.02	38.20	-0.11	7.54
76.768	28.06	38.24	-0.11	7.54
76.800	28.06	38.24	-0.01	7.64
76.832	28.06	38.24	-0.01	7.64
76.864	28.11	38.29	-0.01	7.64
76.896	28.11	38.29	-0.09	7.56
76.928	28.11	38.29	-0.09	7.56
76.960	28.02	38.20	-0.09	7.56
76.992	28.02	38.20	-0.06	7.59
77.024	28.02	38.20	-0.06	7.59
77.056	27.97	38.15	-0.06	7.59
77.088	27.97	38.15	-0.02	7.63
77.120	27.97	38.15	-0.02	7.63
77.152	28.00	38.17	-0.02	7.63
77.184	28.00	38.17	-0.11	7.53
77.216	28.00	38.17	-0.11	7.53
77.248	27.98	38.16	-0.11	7.53
77.280	27.98	38.16	-0.01	7.64
77.312	27.98	38.16	-0.01	7.64
77.344	28.05	38.23	-0.01	7.64
77.376	28.05	38.23	-0.09	7.56
77.408	28.05	38.23	-0.09	7.56
77.440	27.98	38.16	-0.09	7.56
77.472	27.98	38.16	-0.06	7.59
77.504	27.98	38.16	-0.06	7.59
77.536	27.99	38.16	-0.06	7.59
77.568	27.99	38.16	-0.02	7.63
77.600	27.99	38.16	-0.02	7.63
77.632	28.07	38.25	-0.02	7.63
77.664	28.07	38.25	-0.11	7.53
77.696	28.07	38.25	-0.11	7.53
77.728	28.22	38.40	-0.11	7.53
77.760	28.22	38.40	-0.01	7.64
77.792	28.22	38.40	-0.01	7.64
77.824	28.08	38.26	-0.01	7.64
77.856	28.08	38.26	-0.09	7.56
77.888	28.08	38.26	-0.09	7.56
77.920	28.03	38.21	-0.09	7.56
77.952	28.03	38.21	-0.05	7.60
77.984	28.03	38.21	-0.05	7.60
78.016	28.03	38.21	-0.05	7.60
78.048	28.03	38.21	-0.02	7.62
78.080	28.03	38.21	-0.02	7.62
78.112	27.97	38.15	-0.02	7.62
78.144	27.97	38.15	-0.11	7.54
78.176	27.97	38.15	-0.11	7.54
78.208	28.01	38.19	-0.11	7.54
78.240	28.01	38.19	-0.01	7.64
78.272	28.01	38.19	-0.01	7.64
78.304	28.10	38.28	-0.01	7.64
78.336	28.10	38.28	-0.10	7.55
78.368	28.10	38.28	-0.10	7.55
78.400	28.04	38.22	-0.10	7.55
78.432	28.04	38.22	-0.05	7.60
78.464	28.04	38.22	-0.05	7.60
78.496	28.10	38.28	-0.05	7.60
78.528	28.10	38.28	-0.02	7.62
78.560	28.10	38.28	-0.02	7.62
78.592	28.04	38.21	-0.02	7.62
78.624	28.04	38.21	-0.11	7.54
78.656	28.04	38.21	-0.11	7.54
78.688	28.13	38.30	-0.11	7.54
78.720	28.13	38.30	-0.01	7.64
78.752	28.13	38.30	-0.01	7.64
78.784	28.03	38.21	-0.01	7.64
78.816	28.03	38.21	-0.10	7.55
78.848	28.03	38.21	-0.10	7.55
78.880	27.99	38.17	-0.10	7.55
78.912	27.99	38.17	-0.04	7.60
78.944	27.99	38.17	-0.04	7.60
78.976	28.06	38.24	-0.04	7.60
79.008	28.06	38.24	-0.03	7.62
79.040	28.06	38.24	-0.03	7.62
79.072	27.94	38.12	-0.03	7.62
79.104	27.94	38.12	-0.11	7.54
79.136	27.94	38.12	-0.11	7.54
79.168	28.05	38.23	-0.11	7.54
79.200	28.05	38.23	-0.01	7.64
79.232	28.05	38.23	-0.01	7.64
79.264	28.12	38.30	-0.01	7.64
79.296	28.12	38.30	-0.09	7.56
79.328	28.12	38.30	-0.09	7.56
79.360	28.04	38.22	-0.09	7.56
79.392	28.04	38.22	-0.04	7.61
79.424	28.04	38.22	-0.04	7.61
79.456	28.25	38.43	-0.04	7.61
79.488	28.25	38.43	-0.03	7.62
79.520	28.25	38.43	-0.03	7.62
79.552	28.07	38.25	-0.03	7.62
79.584	28.07	38.25	-0.11	7.54
79.616	28.07	38.25	-0.11	7.54
79.648	28.14	38.32	-0.11	7.54
79.680	28.14	38.32	-0.00	7.65
79.712	28.14	38.32	-0.00	7.65
79.744	27.99	38.17	-0.00	7.65
79.776	27.99	38.17	-0.09	7.56
79.808	27.99	38.17	-0.09	7.56
79.840	28.10	38.28	-0.09	7.56
79.872	28.10	38.28	-0.04	7.61
79.904	28.10	38.28	-0.04	7.61
79.936	28.06	38.24	-0.04	7.61
79.968	28.06	38.24	-0.04	7.61
80.000	28.06	38.24	-0.04	7.61
80.032	27.95	38.13	-0.04	7.61
80.064	27.95	38.13	-0.11	7.54
80.096	27.95	38.13	-0.11	7.54
80.128	28.08	38.26	-0.11	7.54
80.160	28.08	38.26	-0.01	7.64
80.192	28.08	38.26	-0.01	7.64
80.224	28.02	38.20	-0.01	7.64
80.256	28.02	38.20	-0.10	7.55
80.288	28.02	38.20	-0.10	7.55
80.320	28.07	38.25	-0.10	7.55
80.352	28.07	38.25	-0.03	7.62
80.384	28.07	38.25	-0.03	7.62
80.416	28.09	38.27	-0.03	7.62
80.448	28.09	38.27	-0.04	7.61
80.480	28.09	38.27	-0.04	7.61
80.512	28.10	38.28	-0.04	7.61
80.544	28.10	38.28	-0.11	7.54
80.576	28.10	38.28	-0.11	7.54
80.608	28.12	38.30	-0.11	7.54
80.640	28.12	38.30	-0.00	7.65
80.672	28.12	38.30	-0.00	7.65
80.704	27.96	38.14	-0.00	7.65
80.736	27.96	38.14	-0.10	7.55
80.768	27.96	38.14	-0.10	7.55
80.800	28.03	38.21	-0.10	7.55
80.832	28.03	38.21	-0.03	7.62
80.864	28.03	38.21	-0.03	7.62
80.896	28.02	38.20	-0.03	7.62
80.928	28.02	38.20	-0.05	7.60
80.960	28.02	38.20	-0.05	7.60
80.992	27.95	38.13	-0.05	7.60
81.024	27.95	38.13	-0.11	7.54
81.056	27.95	38.13	-0.11	7.54
81.088	28.05	38.23	-0.11	7.54
81.120	28.05	38.23	0.00	7.65
81.152	28.05	38.23	0.00	7.65
81.184	28.05	38.23	0.00	7.65
81.216	28.05	38.23	-0.10	7.55
81.248	28.05	38.23	-0.10	7.55
81.280	28.01	38.18	-0.10	7.55
81.312	28.01	38.18	-0.02	7.62
81.344	28.01	38.18	-0.02	7.62
81.376	27.99	38.17	-0.02	7.62
81.408	27.99	38.17	-0.05	7.60
81.440	27.99	38.17	-0.05	7.60
81.472	28.15	38.33	-0.05	7.60
81.504	28.15	38.33	-0.10	7.55
81.536	28.15	38.33	-0.10	7.55
81.568	28.05	38.22	-0.10	7.55
81.600	28.05	38.22	-0.00	7.64
81.632	28.05	38.22	-0.00	7.64
81.664	27.98	38.15	-0.00	7.64
81.696	27.98	38.15	-0.10	7.55
81.728	27.98	38.15	-0.10	7.55
81.760	28.01	38.18	-0.10	7.55
81.792	28.01	38.18	-0.02	7.63
81.824	28.01	38.18	-0.02	7.63
81.856	28.02	38.20	-0.02	7.63
81.888	28.02	38.20	-0.06	7.59
81.920	28.02	38.20	-0.06	7.59
81.952	28.03	38.20	-0.06	7.59
81.984	28.03	38.20	-0.10	7.55
82.016	28.03	38.20	-0.10	7.55
82.048	28.08	38.26	-0.10	7.55
82.080	28.08	38.26	-0.00	7.64
82.112	28.08	38.26	-0.00	7.64
82.144	28.05	38.23	-0.00	7.64
82.176	28.05	38.23	-0.10	7.54
82.208	28.05	38.23	-0.10	7.54
82.240	28.06	38.24	-0.10	7.54
82.272	28.06	38.24	-0.02	7.63
82.304	28.06	38.24	-0.02	7.63
82.336	28.04	38.22	-0.02	7.63
82.368	28.04	38.22	-0.06	7.59
82.400	28.04	38.22	-0.06	7.59
82.432	28.18	38.36	-0.06	7.59
82.464	28.18	38.36	-0.09	7.55
82.496	28.18	38.36	-0.09	7.55
82.528	28.04	38.22	-0.09	7.55
82.560	28.04	38.22	-0.01	7.64
82.592	28.04	38.22	-0.01	7.64
82.624	28.00	38.18	-0.01	7.64
82.656	28.00	38.18	-0.10	7.54
82.688	28.00	38.18	-0.10	7.54
82.720	28.08	38.26	-0.10	7.54
82.752	28.08	38.26	-0.02	7.63
82.784	28.08	38.26	-0.02	7.63
82.816	27.99	38.17	-0.02	7.63
82.848	27.99	38.17	-0.07	7.58
82.880	27.99	38.17	-0.07	7.58
82.912	28.09	38.27	-0.07	7.58
82.944	28.09	38.27	-0.09	7.56
82.976	28.09	38.27	-0.09	7.56
83.008	28.08	38.26	-0.09	7.56
83.040	28.08	38.26	-0.01	7.64
83.072	28.08	38.26	-0.01	7.64
83.104	28.03	38.21	-0.01	7.64
83.136	28.03	38.21	-0.11	7.54
83.168	28.03	38.21	-0.11	7.54
83.200	28.08	38.26	-0.11	7.54
83.232	28.08	38.26	-0.02	7.63
83.264	28.08	38.26	-0.02	7.63
83.296	28.02	38.20	-0.02	7.63
83.328	28.02	38.20	-0.07	7.57
83.360	28.02	38.20	-0.07	7.57
83.392	28.10	38.28	-0.07	7.57
83.424	28.10	38.28	-0.09	7.56
83.456	28.10	38.28	-0.09	7.56
83.488	27.99	38.17	-0.09	7.56
83.520	27.99	38.17	-0.01	7.64
83.552	27.99	38.17	-0.01	7.64
83.584	28.04	38.22	-0.01	7.64
83.616	28.04	38.22	-0.11	7.54
83.648	28.04	38.22	-0.11	7.54
83.680	28.10	38.28	-0.11	7.54
83.712	28.10	38.28	-0.02	7.63
83.744	28.10	38.28	-0.02	7.63
83.776	27.99	38.17	-0.02	7.63
83.808	27.99	38.17	-0.08	7.57
83.840	27.99	38.17	-0.08	7.57
83.872	28.05	38.22	-0.08	7.57
83.904	28.05	38.22	-0.08	7.57
83.936	28.05	38.22	-0.08	7.57
83.968	28.06	38.24	-0.08	7.57
84.000	28.06	38.24	-0.01	7.64
84.032	28.06	38.24	-0.01	7.64
84.064	27.96	38.14	-0.01	7.64
84.096	27.96	38.14	-0.11	7.54
84.128	27.96	38.14	-0.11	7.54
84.160	28.08	38.26	-0.11	7.54
84.192	28.08	38.26	-0.02	7.63
84.224	28.08	38.26	-0.02	7.63
84.256	28.08	38.26	-0.02	7.63
84.288	28.08	38.26	-0.08	7.57
84.320	28.08	38.26	-0.08	7.57
84.352	28.06	38.24	-0.08	7.57
84.384	28.06	38.24	-0.07	7.57
84.416	28.06	38.24	-0.07	7.57
84.448	27.97	38.14	-0.07	7.57
84.480	27.97	38.14	-0.01	7.64
84.512	27.97	38.14	-0.01	7.64
84.544	28.01	38.19	-0.01	7.64
84.576	28.01	38.19	-0.12	7.53
84.608	28.01	38.19	-0.12	7.53
84.640	27.98	38.16	-0.12	7.53
84.672	27.98	38.16	-0.02	7.63
84.704	27.98	38.16	-0.02	7.63
84.736	27.87	38.05	-0.02	7.63
84.768	27.87	38.05	-0.09	7.56
84.800	27.87	38.05	-0.09	7.56
84.832	28.09	38.27	-0.09	7.56
84.864	28.09	38.27	-0.07	7.58
84.896	28.09	38.27	-0.07	7.58
84.928	27.95	38.12	-0.07	7.58
84.960	27.95	38.12	-0.01	7.64
84.992	27.95	38.12	-0.01	7.64
85.024	27.96	38.14	-0.01	7.64
85.056	27.96	38.14	-0.12	7.53
85.088	27.96	38.14	-0.12	7.53
85.120	28.05	38.23	-0.12	7.53
85.152	28.05	38.23	-0.02	7.63
85.184	28.05	38.23	-0.02	7.63
85.216	28.04	38.21	-0.02	7.63
85.248	28.04	38.21	-0.09	7.56
85.280	28.04	38.21	-0.09	7.56
85.312	28.03	38.20	-0.09	7.56
85.344	28.03	38.20	-0.06	7.59
85.376	28.03	38.20	-0.06	7.59
85.408	28.08	38.25	-0.06	7.59
85.440	28.08	38.25	-0.02	7.63
85.472	28.08	38.25	-0.02	7.63
85.504	27.97	38.15	-0.02	7.63
85.536	27.97	38.15	-0.11	7.53
85.568	27.97	38.15	-0.11	7.53
85.600	28.11	38.29	-0.11	7.53
85.632	28.11	38.29	-0.01	7.63
85.664	28.11	38.29	-0.01	7.63
85.696	27.98	38.16	-0.01	7.63
85.728	27.98	38.16	-0.09	7.55
85.760	27.98	38.16	-0.09	7.55
85.792	28.06	38.23	-0.09	7.55
85.824	28.06	38.23	-0.06	7.59
85.856	28.06	38.23	-0.06	7.59
85.888	27.93	38.11	-0.06	7.59
85.920	27.93	38.11	-0.02	7.63
85.952	27.93	38.11	-0.02	7.63
85.984	28.01	38.19	-0.02	7.63
86.016	28.01	38.19	-0.11	7.53
86.048	28.01	38.19	-0.11	7.53
86.080	27.97	38.15	-0.11	7.53
86.112	27.97	38.15	-0.01	7.64
86.144	27.97	38.15	-0.01	7.64
86.176	28.12	38.30	-0.01	7.64
86.208	28.12	38.30	-0.09	7.56
86.240	28.12	38.30	-0.09	7.56
86.272	28.02	38.19	-0.09	7.56
86.304	28.02	38.19	-0.05	7.60
86.336	28.02	38.19	-0.05	7.60
86.368	27.91	38.09	-0.05	7.60
86.400	27.91	38.09	-0.02	7.63
86.432	27.91	38.09	-0.02	7.63
86.464	28.14	38.32	-0.02	7.63
86.496	28.14	38.32	-0.11	7.54
86.528	28.14	38.32	-0.11	7.54
86.560	28.02	38.20	-0.11	7.54
86.592	28.02	38.20	-0.01	7.64
86.624	28.02	38.20	-0.01	7.64
86.656	28.07	38.25	-0.01	7.64
86.688	28.07	38.25	-0.10	7.55
86.720	28.07	38.25	-0.10	7.55
86.752	28.05	38.22	-0.10	7.55
86.784	28.05	38.22	-0.05	7.60
86.816	28.05	38.22	-0.05	7.60
86.848	28.03	38.21	-0.05	7.60
86.880	28.03	38.21	-0.02	7.62
86.912	28.03	38.21	-0.02	7.62
86.944	28.06	38.24	-0.02	7.62
86.976	28.06	38.24	-0.11	7.54
87.008	28.06	38.24	-0.11	7.54
87.040	27.95	38.13	-0.11	7.54
87.072	27.95	38.13	-0.01	7.64
87.104	27.95	38.13	-0.01	7.64
87.136	28.09	38.27	-0.01	7.64
87.168	28.09	38.27	-0.09	7.55
87.200	28.09	38.27	-0.09	7.55
87.232	28.03	38.21	-0.09	7.55
87.264	28.03	38.21	-0.04	7.61
87.296	28.03	38.21	-0.04	7.61
87.328	28.00	38.18	-0.04	7.61
87.360	28.00	38.18	-0.03	7.62
87.392	28.00	38.18	-0.03	7.62
87.424	28.04	38.22	-0.03	7.62
87.456	28.04	38.22	-0.11	7.54
87.488	28.04	38.22	-0.11	7.54
87.520	28.00	38.17	-0.11	7.54
87.552	28.00	38.17	-0.01	7.64
87.584	28.00	38.17	-0.01	7.64
87.616	28.03	38.21	-0.01	7.64
87.648	28.03	38.21	-0.10	7.55
87.680	28.03	38.21	-0.10	7.55
87.712	28.04	38.22	-0.10	7.55
87.744	28.04	38.22	-0.04	7.61
87.776	28.04	38.22	-0.04	7.61
87.808	28.00	38.18	-0.04	7.61
87.840	28.00	38.18	-0.03	7.62
87.872	28.00	38.18	-0.03	7.62
87.904	28.06	38.24	-0.03	7.62
87.936	28.06	38.24	-0.11	7.54
87.968	28.06	38.24	-0.11	7.54
88.000	28.05	38.23	-0.11	7.54
88.032	28.05	38.23	-0.00	7.64
88.064	28.05	38.23	-0.00	7.64
88.096	28.06	38.24	-0.00	7.64
88.128	28.06	38.24	-0.09	7.55
88.160	28.06	38.24	-0.09	7.55
88.192	27.95	38.13	-0.09	7.55
88.224	27.95	38.13	-0.03	7.62
88.256	27.95	38.13	-0.03	7.62
88.288	28.02	38.20	-0.03	7.62
88.320	28.02	38.20	-0.04	7.61
88.352	28.02	38.20	-0.04	7.61
88.384	28.04	38.22	-0.04	7.61
88.416	28.04	38.22	-0.11	7.54
88.448	28.04	38.22	-0.11	7.54
88.480	27.98	38.16	-0.11	7.54
88.512	27.98	38.16	-0.00	7.65
88.544	27.98	38.16	-0.00	7.65
88.576	28.09	38.27	-0.00	7.65
88.608	28.09	38.27	-0.10	7.55
88.640	28.09	38.27	-0.10	7.55
88.672	28.04	38.22	-0.10	7.55
88.704	28.04	38.22	-0.03	7.62
88.736	28.04	38.22	-0.03	7.62
88.768	27.92	38.10	-0.03	7.62
88.800	27.92	38.10	-0.04	7.61
88.832	27.92	38.10	-0.04	7.61
88.864	28.04	38.22	-0.04	7.61
88.896	28.04	38.22	-0.10	7.55
88.928	28.04	38.22	-0.10	7.55
88.960	27.95	38.12	-0.10	7.55
88.992	27.95	38.12	0.00	7.65
89.024	27.95	38.12	0.00	7.65
89.056	28.10	38.28	0.00	7.65
89.088	28.10	38.28	-0.09	7.56
89.120	28.10	38.28	-0.09	7.56
89.152	27.92	38.10	-0.09	7.56
89.184	27.92	38.10	-0.03	7.62
89.216	27.92	38.10	-0.03	7.62
89.248	28.00	38.17	-0.03	7.62
89.280	28.00	38.17	-0.05	7.60
89.312	28.00	38.17	-0.05	7.60
89.344	28.02	38.20	-0.05	7.60
89.376	28.02	38.20	-0.10	7.55
89.408	28.02	38.20	-0.10	7.55
89.440	27.96	38.13	-0.10	7.55
89.472	27.96	38.13	0.00	7.65
89.504	27.96	38.13	0.00	7.65
89.536	28.04	38.22	0.00	7.65
89.568	28.04	38.22	-0.10	7.55
89.600	28.04	38.22	-0.10	7.55
89.632	27.95	38.12	-0.10	7.55
89.664	27.95	38.12	-0.03	7.62
89.696	27.95	38.12	-0.03	7.62
89.728	27.96	38.14	-0.03	7.62
89.760	27.96	38.14	-0.05	7.60
89.792	27.96	38.14	-0.05	7.60
89.824	28.06	38.24	-0.05	7.60
89.856	28.06	38.24	-0.10	7.55
89.888	28.06	38.24	-0.10	7.55
89.920	28.01	38.19	-0.10	7.55
89.952	28.01	38.19	-0.00	7.65
89.984	28.01	38.19	-0.00	7.65
90.016	28.06	38.24	-0.00	7.65
90.048	28.06	38.24	-0.10	7.54
90.080	28.06	38.24	-0.10	7.54
90.112	27.94	38.12	-0.10	7.54
90.144	27.94	38.12	-0.02	7.62
90.176	27.94	38.12	-0.02	7.62
90.208	27.96	38.14	-0.02	7.62
90.240	27.96	38.14	-0.05	7.60
90.272	27.96	38.14	-0.05	7.60
90.304	28.05	38.23	-0.05	7.60
90.336	28.05	38.23	-0.10	7.55
90.368	28.05	38.23	-0.10	7.55
90.400	27.93	38.11	-0.10	7.55
90.432	27.93	38.11	-0.00	7.64
90.464	27.93	38.11	-0.00	7.64
90.496	28.05	38.22	-0.00	7.64
90.528	28.05	38.22	-0.10	7.55
90.560	28.05	38.22	-0.10	7.55
90.592	27.95	38.13	-0.10	7.55
90.624	27.95	38.13	-0.02	7.62
90.656	27.95	38.13	-0.02	7.62
90.688	27.93	38.11	-0.02	7.62
90.720	27.93	38.11	-0.05	7.60
90.752	27.93	38.11	-0.05	7.60
90.784	28.04	38.22	-0.05	7.60
90.816	28.04	38.22	-0.11	7.54
90.848	28.04	38.22	-0.11	7.54
90.880	28.03	38.21	-0.11	7.54
90.912	28.03	38.21	-0.00	7.64
90.944	28.03	38.21	-0.00	7.64
90.976	27.95	38.13	-0.00	7.64
91.008	27.95	38.13	-0.10	7.55
91.040	27.95	38.13	-0.10	7.55
91.072	27.92	38.10	-0.10	7.55
91.104	27.92	38.10	-0.02	7.62
91.136	27.92	38.10	-0.02	7.62
91.168	28.02	38.20	-0.02	7.62
91.200	28.02	38.20	-0.05	7.60
91.232	28.02	38.20	-0.05	7.60
91.264	27.99	38.17	-0.05	7.60
91.296	27.99	38.17	-0.11	7.54
91.328	27.99	38.17	-0.11	7.54
91.360	28.04	38.22	-0.11	7.54
91.392	28.04	38.22	0.00	7.65
91.424	28.04	38.22	0.00	7.65
91.456	28.00	38.18	0.00	7.65
91.488	28.00	38.18	-0.11	7.54
91.520	28.00	38.18	-0.11	7.54
91.552	27.99	38.16	-0.11	7.54
91.584	27.99	38.16	-0.02	7.63
91.616	27.99	38.16	-0.02	7.63
91.648	27.95	38.13	-0.02	7.63
91.680	27.95	38.13	-0.06	7.59
91.712	27.95	38.13	-0.06	7.59
91.744	28.06	38.23	-0.06	7.59
91.776	28.06	38.23	-0.11	7.54
91.808	28.06	38.23	-0.11	7.54
91.840	28.12	38.30	-0.11	7.54
91.872	28.12	38.30	-0.00	7.65
91.904	28.12	38.30	-0.00	7.65
91.936	28.01	38.18	-0.00	7.65
91.968	28.01	38.18	-0.11	7.54
92.000	28.01	38.18	-0.11	7.54
92.032	27.91	38.09	-0.11	7.54
92.064	27.91	38.09	-0.02	7.63
92.096	27.91	38.09	-0.02	7.63
92.128	28.04	38.22	-0.02	7.63
92.160	28.04	38.22	-0.05	7.59
92.192	28.04	38.22	-0.05	7.59
92.224	27.99	38.17	-0.05	7.59
92.256	27.99	38.17	-0.10	7.54
92.288	27.99	38.17	-0.10	7.54
92.320	28.06	38.24	-0.10	7.54
92.352	28.06	38.24	0.00	7.65
92.384	28.06	38.24	0.00	7.65
92.416	28.00	38.18	0.00	7.65
92.448	28.00	38.18	-0.11	7.54
92.480	28.00	38.18	-0.11	7.54
92.512	28.03	38.20	-0.11	7.54
92.544	28.03	38.20	-0.02	7.63
92.576	28.03	38.20	-0.02	7.63
92.608	28.11	38.29	-0.02	7.63
92.640	28.11	38.29	-0.06	7.59
92.672	28.11	38.29	-0.06	7.59
92.704	28.03	38.20	-0.06	7.59
92.736	28.03	38.20	-0.10	7.54
92.768	28.03	38.20	-0.10	7.54
92.800	28.15	38.33	-0.10	7.54
92.832	28.15	38.33	-0.00	7.64
92.864	28.15	38.33	-0.00	7.64
92.896	28.04	38.22	-0.00	7.64
92.928	28.04	38.22	-0.11	7.54
92.960	28.04	38.22	-0.11	7.54
92.992	27.93	38.11	-0.11	7.54
93.024	27.93	38.11	-0.02	7.62
93.056	27.93	38.11	-0.02	7.62
93.088	27.99	38.17	-0.02	7.62
93.120	27.99	38.17	-0.07	7.58
93.152	27.99	38.17	-0.07	7.58
93.184	27.90	38.08	-0.07	7.58
93.216	27.90	38.08	-0.10	7.55
93.248	27.90	38.08	-0.10	7.55
93.280	28.03	38.20	-0.10	7.55
93.312	28.03	38.20	0.00	7.65
93.344	28.03	38.20	0.00	7.65
93.376	27.99	38.17	0.00	7.65
93.408	27.99	38.17	-0.11	7.53
93.440	27.99	38.17	-0.11	7.53
93.472	28.01	38.19	-0.11	7.53
93.504	28.01	38.19	-0.02	7.62
93.536	28.01	38.19	-0.02	7.62
93.568	28.06	38.23	-0.02	7.62
93.600	28.06	38.23	-0.07	7.58
93.632	28.06	38.23	-0.07	7.58
93.664	28.03	38.21	-0.07	7.58
93.696	28.03	38.21	-0.10	7.55
93.728	28.03	38.21	-0.10	7.55
93.760	27.95	38.13	-0.10	7.55
93.792	27.95	38.13	-0.00	7.65
93.824	27.95	38.13	-0.00	7.65
93.856	27.94	38.11	-0.00	7.65
93.888	27.94	38.11	-0.12	7.53
93.920	27.94	38.11	-0.12	7.53
93.952	27.94	38.12	-0.12	7.53
93.984	27.94	38.12	-0.02	7.63
94.016	27.94	38.12	-0.02	7.63
94.048	27.95	38.13	-0.02	7.63
94.080	27.95	38.13	-0.07	7.57
94.112	27.95	38.13	-0.07	7.57
94.144	27.94	38.12	-0.07	7.57
94.176	27.94	38.12	-0.09	7.56
94.208	27.94	38.12	-0.09	7.56
94.240	27.94	38.11	-0.09	7.56
94.272	27.94	38.11	0.00	7.65
94.304	27.94	38.11	0.00	7.65
94.336	27.96	38.14	0.00	7.65
94.368	27.96	38.14	-0.12	7.53
94.400	27.96	38.14	-0.12	7.53
94.432	27.99	38.17	-0.12	7.53
94.464	27.99	38.17	-0.02	7.63
94.496	27.99	38.17	-0.02	7.63
94.528	27.98	38.16	-0.02	7.63
94.560	27.98	38.16	-0.08	7.57
94.592	27.98	38.16	-0.08	7.57
94.624	28.02	38.19	-0.08	7.57
94.656	28.02	38.19	-0.09	7.55
94.688	28.02	38.19	-0.09	7.55
94.720	28.05	38.22	-0.09	7.55
94.752	28.05	38.22	-0.00	7.65
94.784	28.05	38.22	-0.00	7.65
94.816	27.80	37.98	-0.00	7.65
94.848	27.80	37.98	-0.12	7.53
94.880	27.80	37.98	-0.12	7.53
94.912	28.03	38.20	-0.12	7.53
94.944	28.03	38.20	-0.02	7.63
94.976	28.03	38.20	-0.02	7.63
95.008	27.91	38.08	-0.02	7.63
95.040	27.91	38.08	-0.08	7.57
95.072	27.91	38.08	-0.08	7.57
95.104	27.92	38.09	-0.08	7.57
95.136	27.92	38.09	-0.09	7.56
95.168	27.92	38.09	-0.09	7.56
95.200	27.98	38.15	-0.09	7.56
95.232	27.98	38.15	-0.00	7.64
95.264	27.98	38.15	-0.00	7.64
95.296	27.91	38.09	-0.00	7.64
95.328	27.91	38.09	-0.12	7.53
95.360	27.91	38.09	-0.12	7.53
95.392	28.00	38.17	-0.12	7.53
95.424	28.00	38.17	-0.02	7.63
95.456	28.00	38.17	-0.02	7.63
95.488	27.93	38.11	-0.02	7.63
95.520	27.93	38.11	-0.08	7.57
95.552	27.93	38.11	-0.08	7.57
95.584	27.95	38.13	-0.08	7.57
95.616	27.95	38.13	-0.09	7.56
95.648	27.95	38.13	-0.09	7.56
95.680	27.93	38.10	-0.09	7.56
95.712	27.93	38.10	-0.00	7.64
95.744	27.93	38.10	-0.00	7.64
95.776	27.90	38.08	-0.00	7.64
95.808	27.90	38.08	-0.12	7.53
95.840	27.90	38.08	-0.12	7.53
95.872	27.96	38.14	-0.12	7.53
95.904	27.96	38.14	-0.02	7.63
95.936	27.96	38.14	-0.02	7.63
95.968	27.85	38.03	-0.02	7.63
96.000	27.85	38.03	-0.08	7.57
96.032	27.85	38.03	-0.08	7.57
96.064	27.91	38.09	-0.08	7.57
96.096	27.91	38.09	-0.09	7.56
96.128	27.91	38.09	-0.09	7.56
96.160	27.95	38.13	-0.09	7.56
96.192	27.95	38.13	-0.00	7.65
96.224	27.95	38.13	-0.00	7.65
96.256	27.91	38.09	-0.00	7.65
96.288	27.91	38.09	-0.12	7.53
96.320	27.91	38.09	-0.12	7.53
96.352	27.91	38.09	-0.12	7.53
96.384	27.91	38.09	-0.02	7.63
96.416	27.91	38.09	-0.02	7.63
96.448	27.94	38.12	-0.02	7.63
96.480	27.94	38.12	-0.09	7.56
96.512	27.94	38.12	-0.09	7.56
96.544	28.10	38.28	-0.09	7.56
96.576	28.10	38.28	-0.09	7.56
96.608	28.10	38.28	-0.09	7.56
96.640	24.62	34.80	-0.09	7.56
96.672	24.62	34.80	-0.01	7.64
96.704	24.62	34.80	-0.01	7.64
96.736	-5.87	4.31	-0.01	7.64
96.768	-5.87	4.31	-0.18	7.47
96.800	-5.87	4.31	-0.18	7.47
96.832	-11.19	-1.01	-0.18	7.47
96.864	-11.19	-1.01	-0.07	7.58
96.896	-11.19	-1.01	-0.07	7.58
96.928	-0.30	9.87	-0.07	7.58
96.960	-0.30	9.87	-0.08	7.57
96.992	-0.30	9.87	-0.08	7.57
97.024	10.76	20.94	-0.08	7.57
97.056	10.76	20.94	-0.09	7.56
97.088	10.76	20.94	-0.09	7.56
97.120	2.50	12.68	-0.09	7.56
97.152	2.50	12.68	-0.01	7.64
97.184	2.50	12.68	-0.01	7.64
97.216	-5.81	4.36	-0.01	7.64
97.248	-5.81	4.36	-0.12	7.52
97.280	-5.81	4.36	-0.12	7.52
97.312	-2.65	7.52	-0.12	7.52
97.344	-2.65	7.52	-0.02	7.63
97.376	-2.65	7.52	-0.02	7.63
97.408	3.53	13.71	-0.02	7.63
97.440	3.53	13.71	-0.09	7.55
97.472	3.53	13.71	-0.09	7.55
97.504	2.88	13.06	-0.09	7.55
97.536	2.88	13.06	-0.09	7.56
97.568	2.88	13.06	-0.09	7.56
97.600	-1.33	8.84	-0.09	7.56
97.632	-1.33	8.84	-0.01	7.64
97.664	-1.33	8.84	-0.01	7.64
97.696	-1.85	8.33	-0.01	7.64
97.728	-1.85	8.33	-0.12	7.52
97.760	-1.85	8.33	-0.12	7.52
97.792	0.74	10.91	-0.12	7.52
97.824	0.74	10.91	-0.02	7.63
97.856	0.74	10.91	-0.02	7.63
97.888	1.68	11.86	-0.02	7.63
97.920	1.68	11.86	-0.09	7.56
97.952	1.68	11.86	-0.09	7.56
97.984	0.19	10.37	-0.09	7.56
98.016	0.19	10.37	-0.08	7.57
98.048	0.19	10.37	-0.08	7.57
98.080	-0.76	9.42	-0.08	7.57
98.112	-0.76	9.42	-0.01	7.64
98.144	-0.76	9.42	-0.01	7.64
98.176	-0.04	10.14	-0.01	7.64
98.208	-0.04	10.14	-0.12	7.53
98.240	-0.04	10.14	-0.12	7.53
98.272	0.74	10.92	-0.12	7.53
98.304	0.74	10.92	-0.01	7.63
98.336	0.74	10.92	-0.01	7.63
98.368	0.42	10.60	-0.01	7.63
98.400	0.42	10.60	-0.09	7.56
98.432	0.42	10.60	-0.09	7.56
98.464	-0.12	10.06	-0.09	7.56
98.496	-0.12	10.06	-0.08	7.57
98.528	-0.12	10.06	-0.08	7.57
98.560	-0.02	10.16	-0.08	7.57
98.592	-0.02	10.16	-0.01	7.64
98.624	-0.02	10.16	-0.01	7.64
98.656	0.33	10.51	-0.01	7.64
98.688	0.33	10.51	-0.12	7.53
98.720	0.33	10.51	-0.12	7.53
98.752	0.33	10.51	-0.12	7.53
98.784	0.33	10.51	-0.02	7.63
98.816	0.33	10.51	-0.02	7.63
98.848	0.13	10.31	-0.02	7.63
98.880	0.13	10.31	-0.09	7.56
98.912	0.13	10.31	-0.09	7.56
98.944	0.11	10.29	-0.09	7.56
98.976	0.11	10.29	-0.08	7.57
99.008	0.11	10.29	-0.08	7.57
99.040	0.24	10.42	-0.08	7.57
99.072	0.24	10.42	-0.01	7.64
99.104	0.24	10.42	-0.01	7.64
99.136	0.27	10.45	-0.01	7.64
99.168	0.27	10.45	-0.12	7.52
99.200	0.27	10.45	-0.12	7.52
99.232	0.21	10.39	-0.12	7.52
99.264	0.21	10.39	-0.02	7.63
99.296	0.21	10.39	-0.02	7.63
99.328	0.20	10.38	-0.02	7.63
99.360	0.20	10.38	-0.09	7.56
99.392	0.20	10.38	-0.09	7.56
99.424	0.26	10.44	-0.09	7.56
99.456	0.26	10.44	-0.08	7.57
99.488	0.26	10.44	-0.08	7.57
99.520	0.29	10.47	-0.08	7.57
99.552	0.29	10.47	-0.01	7.64
99.584	0.29	10.47	-0.01	7.64
99.616	0.28	10.45	-0.01	7.64
99.648	0.28	10.45	-0.12	7.53
99.680	0.28	10.45	-0.12	7.53
99.712	0.27	10.44	-0.12	7.53
99.744	0.27	10.44	-0.02	7.63
99.776	0.27	10.44	-0.02	7.63
99.808	0.29	10.46	-0.02	7.63
99.840	0.29	10.46	-0.09	7.56
99.872	0.29	10.46	-0.09	7.56
99.904	0.30	10.48	-0.09	7.56
99.936	0.30	10.48	-0.09	7.56
99.968	0.30	10.48	-0.09	7.56
100.000	0.29	10.47	-0.09	7.56
100.032	0.29	10.47	-0.01	7.64
100.064	0.29	10.47	-0.01	7.64
100.096	0.29	10.46	-0.01	7.64
100.128	0.29	10.46	-0.12	7.53
100.160	0.29	10.46	-0.12	7.53
100.192	0.29	10.47	-0.12	7.53
100.224	0.29	10.47	-0.02	7.63
100.256	0.29	10.47	-0.02	7.63
100.288	0.30	10.48	-0.02	7.63
100.320	0.30	10.48	-0.09	7.56
100.352	0.30	10.48	-0.09	7.56
100.384	0.30	10.47	-0.09	7.56
100.416	0.30	10.47	-0.09	7.56
100.448	0.30	10.47	-0.09	7.56
100.480	0.29	10.47	-0.09	7.56
100.512	0.29	10.47	-0.00	7.65
100.544	0.29	10.47	-0.00	7.65
100.576	0.30	10.48	-0.00	7.65
100.608	0.30	10.48	-0.12	7.53
100.640	0.30	10.48	-0.12	7.53
100.672	0.30	10.48	-0.12	7.53
100.704	0.30	10.48	-0.02	7.63
100.736	0.30	10.48	-0.02	7.63
100.768	0.30	10.47	-0.02	7.63
100.800	0.30	10.47	-0.09	7.56
100.832	0.30	10.47	-0.09	7.56
100.864	0.29	10.47	-0.09	7.56
100.896	0.29	10.47	-0.09	7.56
100.928	0.29	10.47	-0.09	7.56
100.960	0.29	10.47	-0.09	7.56
100.992	0.29	10.47	-0.01	7.64
101.024	0.29	10.47	-0.01	7.64
101.056	0.29	10.47	-0.01	7.64
101.088	0.29	10.47	-0.12	7.53
