Tempo(s)    P0(KPa) P0+Coluna(KPa)  P1(KPa) P1+Coluna(KPa)
0.032	-2.22	-2.22	-2.22	-2.22
0.096	-2.22	-2.22	-2.22	-2.22
0.160	9.07	9.07	-2.22	-2.22
0.224	9.07	9.07	7.56	7.56
0.288	9.07	9.07	7.56	7.56
0.352	8.95	8.95	7.56	7.56
0.416	8.95	8.95	7.54	7.54
0.480	8.95	8.95	7.54	7.54
0.544	8.90	8.90	7.54	7.54
0.608	8.90	8.90	7.58	7.58
0.672	8.90	8.90	7.58	7.58
0.736	-0.65	8.25	-0.00	7.58
0.800	-0.65	8.25	0.04	7.61
0.864	-0.65	8.25	0.04	7.61
0.928	-0.82	8.08	0.04	7.61
0.992	-0.82	8.08	-0.06	7.52
1.056	-0.82	8.08	-0.06	7.52
1.120	0.93	9.83	-0.06	7.52
1.184	0.93	9.83	0.04	7.62
1.248	0.93	9.83	0.04	7.62
1.312	-0.61	8.29	0.04	7.62
1.376	-0.61	8.29	-0.04	7.53
1.440	-0.61	8.29	-0.04	7.53
1.504	-0.64	8.26	-0.04	7.53
1.568	-0.64	8.26	-0.00	7.57
1.632	-0.64	8.26	-0.00	7.57
1.696	-0.48	8.43	-0.00	7.57
1.760	-0.48	8.43	0.04	7.61
1.824	-0.48	8.43	0.04	7.61
1.888	-0.65	8.25	0.04	7.61
1.952	-0.65	8.25	-0.06	7.52
2.016	-0.65	8.25	-0.06	7.52
2.080	-0.47	8.43	-0.06	7.52
2.144	-0.47	8.43	0.04	7.62
2.208	-0.47	8.43	0.04	7.62
2.272	-0.55	8.35	0.04	7.62
2.336	-0.55	8.35	-0.05	7.53
2.400	-0.55	8.35	-0.05	7.53
2.464	-0.62	8.28	-0.05	7.53
2.528	-0.62	8.28	-0.00	7.57
2.592	-0.62	8.28	-0.00	7.57
2.656	1.07	9.97	-0.00	7.57
2.720	1.07	9.97	0.04	7.61
2.784	1.07	9.97	0.04	7.61
2.848	1.20	10.10	0.04	7.61
2.912	1.20	10.10	-0.06	7.52
2.976	1.20	10.10	-0.06	7.52
3.040	1.31	10.21	-0.06	7.52
3.104	1.31	10.21	0.04	7.62
3.168	1.31	10.21	0.04	7.62
3.232	-0.97	7.93	0.04	7.62
3.264	-0.97	7.93	-0.04	7.53
3.296	-0.97	7.93	-0.04	7.53
3.328	-0.67	8.23	-0.04	7.53
3.360	-0.67	8.23	-0.00	7.58
3.392	-0.67	8.23	-0.00	7.58
3.424	-0.53	8.37	-0.00	7.58
3.456	-0.53	8.37	0.03	7.61
3.488	-0.53	8.37	0.03	7.61
3.520	-0.71	8.19	0.03	7.61
3.552	-0.71	8.19	-0.06	7.52
3.584	-0.71	8.19	-0.06	7.52
3.616	-0.54	8.36	-0.06	7.52
3.648	-0.54	8.36	0.04	7.62
3.680	-0.54	8.36	0.04	7.62
3.712	1.29	10.19	0.04	7.62
3.744	1.29	10.19	-0.04	7.53
3.776	1.29	10.19	-0.04	7.53
3.808	1.29	10.19	-0.04	7.53
3.840	1.29	10.19	-0.00	7.57
3.872	1.29	10.19	-0.00	7.57
3.904	1.30	10.20	-0.00	7.57
3.936	1.30	10.20	0.03	7.61
3.968	1.30	10.20	0.03	7.61
4.000	1.30	10.20	0.03	7.61
4.032	1.30	10.20	-0.06	7.52
4.064	1.30	10.20	-0.06	7.52
4.096	1.30	10.20	-0.06	7.52
4.128	1.30	10.20	0.04	7.62
4.160	1.30	10.20	0.04	7.62
4.192	1.29	10.19	0.04	7.62
4.224	1.29	10.19	-0.05	7.53
4.256	1.29	10.19	-0.05	7.53
4.288	0.29	9.19	-0.05	7.53
4.320	0.29	9.19	0.00	7.58
4.352	0.29	9.19	0.00	7.58
4.384	-0.23	8.67	0.00	7.58
4.416	-0.23	8.67	0.03	7.61
4.448	-0.23	8.67	0.03	7.61
4.480	-0.33	8.57	0.03	7.61
4.512	-0.33	8.57	-0.06	7.52
4.544	-0.33	8.57	-0.06	7.52
4.576	0.23	9.13	-0.06	7.52
4.608	0.23	9.13	0.04	7.62
4.640	0.23	9.13	0.04	7.62
4.672	0.13	9.03	0.04	7.62
4.704	0.13	9.03	-0.05	7.53
4.736	0.13	9.03	-0.05	7.53
4.768	-0.16	8.74	-0.05	7.53
4.800	-0.16	8.74	0.00	7.58
4.832	-0.16	8.74	0.00	7.58
4.864	-0.03	8.88	0.00	7.58
4.896	-0.03	8.88	0.03	7.60
4.928	-0.03	8.88	0.03	7.60
4.960	-0.36	8.54	0.03	7.60
4.992	-0.36	8.54	-0.06	7.52
5.024	-0.36	8.54	-0.06	7.52
5.056	-0.19	8.72	-0.06	7.52
5.088	-0.19	8.72	0.05	7.62
5.120	-0.19	8.72	0.05	7.62
5.152	-0.18	8.72	0.05	7.62
5.184	-0.18	8.72	-0.05	7.53
5.216	-0.18	8.72	-0.05	7.53
5.248	-0.14	8.76	-0.05	7.53
5.280	-0.14	8.76	0.01	7.58
5.312	-0.14	8.76	0.01	7.58
5.344	0.06	8.96	0.01	7.58
5.376	0.06	8.96	0.03	7.60
5.408	0.06	8.96	0.03	7.60
5.440	-0.10	8.80	0.03	7.60
5.472	-0.10	8.80	-0.06	7.52
5.504	-0.10	8.80	-0.06	7.52
5.536	-0.06	8.84	-0.06	7.52
5.568	-0.06	8.84	0.05	7.62
5.600	-0.06	8.84	0.05	7.62
5.632	-0.22	8.68	0.05	7.62
5.664	-0.22	8.68	-0.05	7.53
5.696	-0.22	8.68	-0.05	7.53
5.728	-0.24	8.66	-0.05	7.53
5.760	-0.24	8.66	0.01	7.58
5.792	-0.24	8.66	0.01	7.58
5.824	-0.24	8.66	0.01	7.58
5.856	-0.24	8.66	0.03	7.60
5.888	-0.24	8.66	0.03	7.60
5.920	-0.41	8.49	0.03	7.60
5.952	-0.41	8.49	-0.06	7.52
5.984	-0.41	8.49	-0.06	7.52
6.016	-0.38	8.52	-0.06	7.52
6.048	-0.38	8.52	0.05	7.62
6.080	-0.38	8.52	0.05	7.62
6.112	-0.36	8.54	0.05	7.62
6.144	-0.36	8.54	-0.05	7.53
6.176	-0.36	8.54	-0.05	7.53
6.208	-0.44	8.46	-0.05	7.53
6.240	-0.44	8.46	0.01	7.59
6.272	-0.44	8.46	0.01	7.59
6.304	-0.39	8.52	0.01	7.59
6.336	-0.39	8.52	0.03	7.60
6.368	-0.39	8.52	0.03	7.60
6.400	-0.56	8.34	0.03	7.60
6.432	-0.56	8.34	-0.06	7.52
6.464	-0.56	8.34	-0.06	7.52
6.496	-0.45	8.45	-0.06	7.52
6.528	-0.45	8.45	0.04	7.62
6.560	-0.45	8.45	0.04	7.62
6.592	-0.52	8.38	0.04	7.62
6.624	-0.52	8.38	-0.05	7.53
6.656	-0.52	8.38	-0.05	7.53
6.688	-0.56	8.34	-0.05	7.53
6.720	-0.56	8.34	0.01	7.59
6.752	-0.56	8.34	0.01	7.59
6.784	-0.48	8.42	0.01	7.59
6.816	-0.48	8.42	0.02	7.60
6.848	-0.48	8.42	0.02	7.60
6.880	-0.62	8.28	0.02	7.60
6.912	-0.62	8.28	-0.05	7.52
6.944	-0.62	8.28	-0.05	7.52
6.976	-0.48	8.42	-0.05	7.52
7.008	-0.48	8.42	0.05	7.63
7.040	-0.48	8.42	0.05	7.63
7.072	-0.53	8.37	0.05	7.63
7.104	-0.53	8.37	-0.05	7.53
7.136	-0.53	8.37	-0.05	7.53
7.168	-0.56	8.34	-0.05	7.53
7.200	-0.56	8.34	0.01	7.59
7.232	-0.56	8.34	0.01	7.59
7.264	-0.45	8.45	0.01	7.59
7.296	-0.45	8.45	0.02	7.59
7.328	-0.45	8.45	0.02	7.59
7.360	-0.62	8.28	0.02	7.59
7.392	-0.62	8.28	-0.06	7.52
7.424	-0.62	8.28	-0.06	7.52
7.456	-0.38	8.52	-0.06	7.52
7.488	-0.38	8.52	0.05	7.62
7.520	-0.38	8.52	0.05	7.62
7.552	0.21	9.11	0.05	7.62
7.584	0.21	9.11	-0.05	7.53
7.616	0.21	9.11	-0.05	7.53
7.648	1.16	10.06	-0.05	7.53
7.680	1.16	10.06	0.02	7.59
7.712	1.16	10.06	0.02	7.59
7.744	1.14	10.04	0.02	7.59
7.776	1.14	10.04	0.01	7.59
7.808	1.14	10.04	0.01	7.59
7.840	1.15	10.05	0.01	7.59
7.872	1.15	10.05	-0.05	7.52
7.904	1.15	10.05	-0.05	7.52
7.936	10.27	19.17	-0.05	7.52
7.968	10.27	19.17	0.05	7.63
8.000	10.27	19.17	0.05	7.63
8.032	23.41	32.31	0.05	7.63
8.064	23.41	32.31	-0.05	7.53
8.096	23.41	32.31	-0.05	7.53
8.128	24.22	33.12	-0.05	7.53
8.160	24.22	33.12	0.02	7.60
8.192	24.22	33.12	0.02	7.60
8.224	23.04	31.94	0.02	7.60
8.256	23.04	31.94	0.01	7.59
8.288	23.04	31.94	0.01	7.59
8.320	22.79	31.69	0.01	7.59
8.352	22.79	31.69	-0.05	7.53
8.384	22.79	31.69	-0.05	7.53
8.416	23.14	32.04	-0.05	7.53
8.448	23.14	32.04	0.05	7.63
8.480	23.14	32.04	0.05	7.63
8.512	23.46	32.36	0.05	7.63
8.544	23.46	32.36	-0.05	7.53
8.576	23.46	32.36	-0.05	7.53
8.608	22.23	31.13	-0.05	7.53
8.640	22.23	31.13	0.02	7.60
8.672	22.23	31.13	0.02	7.60
8.704	22.92	31.83	0.02	7.60
8.736	22.92	31.83	0.01	7.58
8.768	22.92	31.83	0.01	7.58
8.800	22.84	31.74	0.01	7.58
8.832	22.84	31.74	-0.05	7.52
8.864	22.84	31.74	-0.05	7.52
8.896	22.67	31.57	-0.05	7.52
8.928	22.67	31.57	0.05	7.63
8.960	22.67	31.57	0.05	7.63
8.992	23.64	32.54	0.05	7.63
9.024	23.64	32.54	-0.05	7.53
9.056	23.64	32.54	-0.05	7.53
9.088	23.60	32.50	-0.05	7.53
9.120	23.60	32.50	0.03	7.60
9.152	23.60	32.50	0.03	7.60
9.184	24.00	32.90	0.03	7.60
9.216	24.00	32.90	0.00	7.58
9.248	24.00	32.90	0.00	7.58
9.280	24.11	33.01	0.00	7.58
9.312	24.11	33.01	-0.05	7.52
9.344	24.11	33.01	-0.05	7.52
9.376	24.21	33.11	-0.05	7.52
9.408	24.21	33.11	0.05	7.63
9.440	24.21	33.11	0.05	7.63
9.472	24.00	32.90	0.05	7.63
9.504	24.00	32.90	-0.05	7.53
9.536	24.00	32.90	-0.05	7.53
9.568	24.01	32.91	-0.05	7.53
9.600	24.01	32.91	0.03	7.60
9.632	24.01	32.91	0.03	7.60
9.664	23.96	32.86	0.03	7.60
9.696	23.96	32.86	-0.00	7.58
9.728	23.96	32.86	-0.00	7.58
9.760	23.82	32.72	-0.00	7.58
9.792	23.82	32.72	-0.05	7.52
9.824	23.82	32.72	-0.05	7.52
9.856	23.62	32.52	-0.05	7.52
9.888	23.62	32.52	0.05	7.63
9.920	23.62	32.52	0.05	7.63
9.952	23.21	32.12	0.05	7.63
9.984	23.21	32.12	-0.05	7.53
10.016	23.21	32.12	-0.05	7.53
10.048	22.87	31.77	-0.05	7.53
10.080	22.87	31.77	0.03	7.60
10.112	22.87	31.77	0.03	7.60
10.144	22.82	31.72	0.03	7.60
10.176	22.82	31.72	-0.00	7.57
10.208	22.82	31.72	-0.00	7.57
10.240	22.45	31.35	-0.00	7.57
10.272	22.45	31.35	-0.05	7.52
10.304	22.45	31.35	-0.05	7.52
10.336	23.65	32.55	-0.05	7.52
10.368	23.65	32.55	0.05	7.63
10.400	23.65	32.55	0.05	7.63
10.432	23.45	32.35	0.05	7.63
10.464	23.45	32.35	-0.05	7.52
10.496	23.45	32.35	-0.05	7.52
10.528	22.89	31.79	-0.05	7.52
10.560	22.89	31.79	0.03	7.60
10.592	22.89	31.79	0.03	7.60
10.624	22.95	31.85	0.03	7.60
10.656	22.95	31.85	-0.01	7.57
10.688	22.95	31.85	-0.01	7.57
10.720	23.31	32.22	-0.01	7.57
10.752	23.31	32.22	-0.05	7.53
10.784	23.31	32.22	-0.05	7.53
10.816	23.00	31.90	-0.05	7.53
10.848	23.00	31.90	0.05	7.62
10.880	23.00	31.90	0.05	7.62
10.912	23.33	32.23	0.05	7.62
10.944	23.33	32.23	-0.05	7.52
10.976	23.33	32.23	-0.05	7.52
11.008	23.38	32.28	-0.05	7.52
11.040	23.38	32.28	0.03	7.61
11.072	23.38	32.28	0.03	7.61
11.104	23.47	32.37	0.03	7.61
11.136	23.47	32.37	-0.01	7.56
11.168	23.47	32.37	-0.01	7.56
11.200	23.78	32.68	-0.01	7.56
11.232	23.78	32.68	-0.05	7.53
11.264	23.78	32.68	-0.05	7.53
11.296	23.37	32.27	-0.05	7.53
11.328	23.37	32.27	0.05	7.62
11.360	23.37	32.27	0.05	7.62
11.392	23.46	32.36	0.05	7.62
11.424	23.46	32.36	-0.06	7.52
11.456	23.46	32.36	-0.06	7.52
11.488	23.65	32.55	-0.06	7.52
11.520	23.65	32.55	0.03	7.61
11.552	23.65	32.55	0.03	7.61
11.584	23.75	32.65	0.03	7.61
11.616	23.75	32.65	-0.02	7.56
11.648	23.75	32.65	-0.02	7.56
11.680	23.13	32.03	-0.02	7.56
11.712	23.13	32.03	-0.04	7.54
11.744	23.13	32.03	-0.04	7.54
11.776	23.05	31.95	-0.04	7.54
11.808	23.05	31.95	0.05	7.62
11.840	23.05	31.95	0.05	7.62
11.872	22.29	31.19	0.05	7.62
11.904	22.29	31.19	-0.06	7.52
11.936	22.29	31.19	-0.06	7.52
11.968	22.49	31.39	-0.06	7.52
12.000	22.49	31.39	0.04	7.61
12.032	22.49	31.39	0.04	7.61
12.064	22.41	31.32	0.04	7.61
12.096	22.41	31.32	-0.03	7.55
12.128	22.41	31.32	-0.03	7.55
12.160	22.49	31.39	-0.03	7.55
12.192	22.49	31.39	-0.04	7.54
12.224	22.49	31.39	-0.04	7.54
12.256	23.09	31.99	-0.04	7.54
12.288	23.09	31.99	0.05	7.62
12.320	23.09	31.99	0.05	7.62
12.352	22.72	31.62	0.05	7.62
12.384	22.72	31.62	-0.06	7.52
12.416	22.72	31.62	-0.06	7.52
12.448	22.63	31.53	-0.06	7.52
12.480	22.63	31.53	0.04	7.61
12.512	22.63	31.53	0.04	7.61
12.544	22.75	31.65	0.04	7.61
12.576	22.75	31.65	-0.03	7.55
12.608	22.75	31.65	-0.03	7.55
12.640	23.35	32.25	-0.03	7.55
12.672	23.35	32.25	-0.04	7.54
12.704	23.35	32.25	-0.04	7.54
12.736	23.46	32.36	-0.04	7.54
12.768	23.46	32.36	0.04	7.62
12.800	23.46	32.36	0.04	7.62
12.832	23.38	32.28	0.04	7.62
12.864	23.38	32.28	-0.06	7.52
12.896	23.38	32.28	-0.06	7.52
12.928	23.16	32.06	-0.06	7.52
12.960	23.16	32.06	0.03	7.61
12.992	23.16	32.06	0.03	7.61
13.024	23.52	32.42	0.03	7.61
13.056	23.52	32.42	-0.03	7.55
13.088	23.52	32.42	-0.03	7.55
13.120	23.81	32.71	-0.03	7.55
13.152	23.81	32.71	-0.03	7.54
13.184	23.81	32.71	-0.03	7.54
13.216	23.70	32.60	-0.03	7.54
13.248	23.70	32.60	0.05	7.62
13.280	23.70	32.60	0.05	7.62
13.312	23.46	32.36	0.05	7.62
13.344	23.46	32.36	-0.06	7.52
13.376	23.46	32.36	-0.06	7.52
13.408	23.50	32.40	-0.06	7.52
13.440	23.50	32.40	0.04	7.61
13.472	23.50	32.40	0.04	7.61
13.504	23.51	32.41	0.04	7.61
13.536	23.51	32.41	-0.03	7.55
13.568	23.51	32.41	-0.03	7.55
13.600	23.25	32.15	-0.03	7.55
13.632	23.25	32.15	-0.03	7.55
13.664	23.25	32.15	-0.03	7.55
13.696	23.41	32.31	-0.03	7.55
13.728	23.41	32.31	0.05	7.62
13.760	23.41	32.31	0.05	7.62
13.792	23.25	32.15	0.05	7.62
13.824	23.25	32.15	-0.06	7.52
13.856	23.25	32.15	-0.06	7.52
13.888	23.09	31.99	-0.06	7.52
13.920	23.09	31.99	0.03	7.61
13.952	23.09	31.99	0.03	7.61
13.984	23.30	32.20	0.03	7.61
14.016	23.30	32.20	-0.03	7.54
14.048	23.30	32.20	-0.03	7.54
14.080	23.72	32.62	-0.03	7.54
14.112	23.72	32.62	-0.02	7.56
14.144	23.72	32.62	-0.02	7.56
14.176	23.87	32.77	-0.02	7.56
14.208	23.87	32.77	0.05	7.62
14.240	23.87	32.77	0.05	7.62
14.272	23.90	32.80	0.05	7.62
14.304	23.90	32.80	-0.06	7.51
14.336	23.90	32.80	-0.06	7.51
14.368	23.77	32.67	-0.06	7.51
14.400	23.77	32.67	0.04	7.62
14.432	23.77	32.67	0.04	7.62
14.464	23.69	32.59	0.04	7.62
14.496	23.69	32.59	-0.03	7.54
14.528	23.69	32.59	-0.03	7.54
14.560	23.74	32.64	-0.03	7.54
14.592	23.74	32.64	-0.02	7.56
14.624	23.74	32.64	-0.02	7.56
14.656	23.72	32.63	-0.02	7.56
14.688	23.72	32.63	0.05	7.62
14.720	23.72	32.63	0.05	7.62
14.752	23.77	32.67	0.05	7.62
14.784	23.77	32.67	-0.06	7.52
14.816	23.77	32.67	-0.06	7.52
14.848	23.94	32.84	-0.06	7.52
14.880	23.94	32.84	0.04	7.62
14.912	23.94	32.84	0.04	7.62
14.944	24.04	32.94	0.04	7.62
14.976	24.04	32.94	-0.04	7.54
15.008	24.04	32.94	-0.04	7.54
15.040	23.65	32.55	-0.04	7.54
15.072	23.65	32.55	-0.01	7.56
15.104	23.65	32.55	-0.01	7.56
15.136	23.71	32.61	-0.01	7.56
15.168	23.71	32.61	0.04	7.62
15.200	23.71	32.61	0.04	7.62
15.232	23.53	32.43	0.04	7.62
15.264	23.53	32.43	-0.06	7.52
15.296	23.53	32.43	-0.06	7.52
15.328	23.53	32.43	-0.06	7.52
15.360	23.53	32.43	0.04	7.62
15.392	23.53	32.43	0.04	7.62
15.424	23.70	32.60	0.04	7.62
15.456	23.70	32.60	-0.04	7.54
15.488	23.70	32.60	-0.04	7.54
15.520	23.45	32.35	-0.04	7.54
15.552	23.45	32.35	-0.01	7.57
15.584	23.45	32.35	-0.01	7.57
15.616	23.40	32.30	-0.01	7.57
15.648	23.40	32.30	0.04	7.62
15.680	23.40	32.30	0.04	7.62
15.712	23.09	31.99	0.04	7.62
15.744	23.09	31.99	-0.06	7.52
15.776	23.09	31.99	-0.06	7.52
15.808	22.82	31.73	-0.06	7.52
15.840	22.82	31.73	0.04	7.62
15.872	22.82	31.73	0.04	7.62
15.904	22.71	31.61	0.04	7.62
15.936	22.71	31.61	-0.04	7.54
15.968	22.71	31.61	-0.04	7.54
16.000	22.22	31.12	-0.04	7.54
16.032	22.22	31.12	-0.00	7.57
16.064	22.22	31.12	-0.00	7.57
16.096	23.07	31.97	-0.00	7.57
16.128	23.07	31.97	0.04	7.62
16.160	23.07	31.97	0.04	7.62
16.192	22.56	31.46	0.04	7.62
16.224	22.56	31.46	-0.06	7.52
16.256	22.56	31.46	-0.06	7.52
16.288	24.14	33.04	-0.06	7.52
16.320	24.14	33.04	0.04	7.62
16.352	24.14	33.04	0.04	7.62
16.384	23.14	32.04	0.04	7.62
16.416	23.14	32.04	-0.04	7.54
16.448	23.14	32.04	-0.04	7.54
16.480	22.40	31.30	-0.04	7.54
16.512	22.40	31.30	0.00	7.58
16.544	22.40	31.30	0.00	7.58
16.576	22.47	31.37	0.00	7.58
16.608	22.47	31.37	0.04	7.61
16.640	22.47	31.37	0.04	7.61
16.672	22.28	31.18	0.04	7.61
16.704	22.28	31.18	-0.06	7.52
16.736	22.28	31.18	-0.06	7.52
16.768	22.11	31.01	-0.06	7.52
16.800	22.11	31.01	0.05	7.62
16.832	22.11	31.01	0.05	7.62
16.864	21.96	30.86	0.05	7.62
16.896	21.96	30.86	-0.04	7.53
16.928	21.96	30.86	-0.04	7.53
16.960	22.51	31.41	-0.04	7.53
16.992	22.51	31.41	0.00	7.58
17.024	22.51	31.41	0.00	7.58
17.056	22.30	31.20	0.00	7.58
17.088	22.30	31.20	0.03	7.61
17.120	22.30	31.20	0.03	7.61
17.152	23.03	31.93	0.03	7.61
17.184	23.03	31.93	-0.06	7.52
17.216	23.03	31.93	-0.06	7.52
17.248	22.56	31.46	-0.06	7.52
17.280	22.56	31.46	0.05	7.62
17.312	22.56	31.46	0.05	7.62
17.344	22.47	31.37	0.05	7.62
17.376	22.47	31.37	-0.04	7.53
17.408	22.47	31.37	-0.04	7.53
17.440	22.10	31.00	-0.04	7.53
17.472	22.10	31.00	0.01	7.58
17.504	22.10	31.00	0.01	7.58
17.536	22.07	30.97	0.01	7.58
17.568	22.07	30.97	0.04	7.61
17.600	22.07	30.97	0.04	7.61
17.632	24.20	33.10	0.04	7.61
17.664	24.20	33.10	-0.05	7.52
17.696	24.20	33.10	-0.05	7.52
17.728	23.12	32.02	-0.05	7.52
17.760	23.12	32.02	0.05	7.62
17.792	23.12	32.02	0.05	7.62
17.824	22.83	31.73	0.05	7.62
17.856	22.83	31.73	-0.04	7.53
17.888	22.83	31.73	-0.04	7.53
17.920	22.97	31.87	-0.04	7.53
17.952	22.97	31.87	0.01	7.58
17.984	22.97	31.87	0.01	7.58
18.016	23.30	32.20	0.01	7.58
18.048	23.30	32.20	0.04	7.61
18.080	23.30	32.20	0.04	7.61
18.112	22.94	31.84	0.04	7.61
18.144	22.94	31.84	-0.06	7.52
18.176	22.94	31.84	-0.06	7.52
18.208	23.07	31.97	-0.06	7.52
18.240	23.07	31.97	0.05	7.63
18.272	23.07	31.97	0.05	7.63
18.304	22.64	31.54	0.05	7.63
18.336	22.64	31.54	-0.04	7.53
18.368	22.64	31.54	-0.04	7.53
18.400	22.19	31.09	-0.04	7.53
18.432	22.19	31.09	0.01	7.59
18.464	22.19	31.09	0.01	7.59
18.496	22.31	31.21	0.01	7.59
18.528	22.31	31.21	0.03	7.61
18.560	22.31	31.21	0.03	7.61
18.592	22.61	31.51	0.03	7.61
18.624	22.61	31.51	-0.05	7.52
18.656	22.61	31.51	-0.05	7.52
18.688	22.81	31.72	-0.05	7.52
18.720	22.81	31.72	0.05	7.63
18.752	22.81	31.72	0.05	7.63
18.784	22.66	31.56	0.05	7.63
18.816	22.66	31.56	-0.04	7.53
18.848	22.66	31.56	-0.04	7.53
18.880	22.71	31.61	-0.04	7.53
18.912	22.71	31.61	0.01	7.59
18.944	22.71	31.61	0.01	7.59
18.976	23.22	32.12	0.01	7.59
19.008	23.22	32.12	0.03	7.61
19.040	23.22	32.12	0.03	7.61
19.072	22.86	31.77	0.03	7.61
19.104	22.86	31.77	-0.05	7.52
19.136	22.86	31.77	-0.05	7.52
19.168	22.76	31.66	-0.05	7.52
19.200	22.76	31.66	0.05	7.63
19.232	22.76	31.66	0.05	7.63
19.264	22.86	31.76	0.05	7.63
19.296	22.86	31.76	-0.05	7.53
19.328	22.86	31.76	-0.05	7.53
19.360	22.41	31.31	-0.05	7.53
19.392	22.41	31.31	0.01	7.59
19.424	22.41	31.31	0.01	7.59
19.456	22.33	31.23	0.01	7.59
19.488	22.33	31.23	0.03	7.60
19.520	22.33	31.23	0.03	7.60
19.552	22.28	31.18	0.03	7.60
19.584	22.28	31.18	-0.05	7.52
19.616	22.28	31.18	-0.05	7.52
19.648	22.36	31.26	-0.05	7.52
19.680	22.36	31.26	0.05	7.62
19.712	22.36	31.26	0.05	7.62
19.744	22.14	31.04	0.05	7.62
19.776	22.14	31.04	-0.04	7.53
19.808	22.14	31.04	-0.04	7.53
19.840	22.06	30.96	-0.04	7.53
19.872	22.06	30.96	0.01	7.59
19.904	22.06	30.96	0.01	7.59
19.936	21.56	30.46	0.01	7.59
19.968	21.56	30.46	0.03	7.61
20.000	21.56	30.46	0.03	7.61
20.032	22.11	31.01	0.03	7.61
20.064	22.11	31.01	-0.05	7.52
20.096	22.11	31.01	-0.05	7.52
20.128	22.25	31.15	-0.05	7.52
20.160	22.25	31.15	0.05	7.63
20.192	22.25	31.15	0.05	7.63
20.224	22.96	31.86	0.05	7.63
20.256	22.96	31.86	-0.04	7.53
20.288	22.96	31.86	-0.04	7.53
20.320	22.41	31.32	-0.04	7.53
20.352	22.41	31.32	0.01	7.58
20.384	22.41	31.32	0.01	7.58
20.416	22.25	31.15	0.01	7.58
20.448	22.25	31.15	0.03	7.60
20.480	22.25	31.15	0.03	7.60
20.512	22.37	31.27	0.03	7.60
20.544	22.37	31.27	-0.06	7.52
20.576	22.37	31.27	-0.06	7.52
20.608	22.40	31.30	-0.06	7.52
20.640	22.40	31.30	0.05	7.62
20.672	22.40	31.30	0.05	7.62
20.704	22.28	31.18	0.05	7.62
20.736	22.28	31.18	-0.04	7.53
20.768	22.28	31.18	-0.04	7.53
20.800	23.69	32.59	-0.04	7.53
20.832	23.69	32.59	0.01	7.59
20.864	23.69	32.59	0.01	7.59
20.896	23.32	32.22	0.01	7.59
20.928	23.32	32.22	0.02	7.60
20.960	23.32	32.22	0.02	7.60
20.992	23.25	32.15	0.02	7.60
21.024	23.25	32.15	-0.06	7.52
21.056	23.25	32.15	-0.06	7.52
21.088	23.05	31.95	-0.06	7.52
21.120	23.05	31.95	0.05	7.63
21.152	23.05	31.95	0.05	7.63
21.184	22.62	31.52	0.05	7.63
21.216	22.62	31.52	-0.04	7.53
21.248	22.62	31.52	-0.04	7.53
21.280	23.07	31.97	-0.04	7.53
21.312	23.07	31.97	0.01	7.59
21.344	23.07	31.97	0.01	7.59
21.376	22.55	31.45	0.01	7.59
21.408	22.55	31.45	0.03	7.61
21.440	22.55	31.45	0.03	7.61
21.472	22.26	31.16	0.03	7.61
21.504	22.26	31.16	-0.06	7.52
21.536	22.26	31.16	-0.06	7.52
21.568	22.89	31.79	-0.06	7.52
21.600	22.89	31.79	0.05	7.63
21.632	22.89	31.79	0.05	7.63
21.664	23.04	31.94	0.05	7.63
21.696	23.04	31.94	-0.05	7.53
21.728	23.04	31.94	-0.05	7.53
21.760	22.71	31.61	-0.05	7.53
21.792	22.71	31.61	0.01	7.59
21.824	22.71	31.61	0.01	7.59
21.856	22.44	31.34	0.01	7.59
21.888	22.44	31.34	0.03	7.60
21.920	22.44	31.34	0.03	7.60
21.952	22.73	31.63	0.03	7.60
21.984	22.73	31.63	-0.05	7.52
22.016	22.73	31.63	-0.05	7.52
22.048	23.37	32.27	-0.05	7.52
22.080	23.37	32.27	0.05	7.63
22.112	23.37	32.27	0.05	7.63
22.144	23.80	32.70	0.05	7.63
22.176	23.80	32.70	-0.05	7.53
22.208	23.80	32.70	-0.05	7.53
22.240	24.10	33.00	-0.05	7.53
22.272	24.10	33.00	0.01	7.59
22.304	24.10	33.00	0.01	7.59
22.336	24.20	33.10	0.01	7.59
22.368	24.20	33.10	0.02	7.60
22.400	24.20	33.10	0.02	7.60
22.432	23.83	32.73	0.02	7.60
22.464	23.83	32.73	-0.05	7.52
22.496	23.83	32.73	-0.05	7.52
22.528	24.16	33.07	-0.05	7.52
22.560	24.16	33.07	0.05	7.62
22.592	24.16	33.07	0.05	7.62
22.624	24.13	33.03	0.05	7.62
22.656	24.13	33.03	-0.04	7.53
22.688	24.13	33.03	-0.04	7.53
22.720	24.02	32.92	-0.04	7.53
22.752	24.02	32.92	0.01	7.59
22.784	24.02	32.92	0.01	7.59
22.816	24.15	33.05	0.01	7.59
22.848	24.15	33.05	0.03	7.60
22.880	24.15	33.05	0.03	7.60
22.912	23.77	32.67	0.03	7.60
22.944	23.77	32.67	-0.06	7.52
22.976	23.77	32.67	-0.06	7.52
23.008	23.91	32.82	-0.06	7.52
23.040	23.91	32.82	0.05	7.63
23.072	23.91	32.82	0.05	7.63
23.104	24.21	33.11	0.05	7.63
23.136	24.21	33.11	-0.04	7.53
23.168	24.21	33.11	-0.04	7.53
23.200	24.10	33.00	-0.04	7.53
23.232	24.10	33.00	0.01	7.59
23.264	24.10	33.00	0.01	7.59
23.296	24.00	32.90	0.01	7.59
23.328	24.00	32.90	0.03	7.60
23.360	24.00	32.90	0.03	7.60
23.392	23.68	32.58	0.03	7.60
23.424	23.68	32.58	-0.05	7.52
23.456	23.68	32.58	-0.05	7.52
23.488	23.85	32.75	-0.05	7.52
23.520	23.85	32.75	0.05	7.63
23.552	23.85	32.75	0.05	7.63
23.584	23.43	32.33	0.05	7.63
23.616	23.43	32.33	-0.04	7.53
23.648	23.43	32.33	-0.04	7.53
23.680	24.17	33.08	-0.04	7.53
23.712	24.17	33.08	0.02	7.59
23.744	24.17	33.08	0.02	7.59
23.776	23.63	32.53	0.02	7.59
23.808	23.63	32.53	0.02	7.60
23.840	23.63	32.53	0.02	7.60
23.872	23.28	32.18	0.02	7.60
23.904	23.28	32.18	-0.05	7.52
23.936	23.28	32.18	-0.05	7.52
23.968	23.61	32.52	-0.05	7.52
24.000	23.61	32.52	0.05	7.63
24.032	23.61	32.52	0.05	7.63
24.064	23.14	32.04	0.05	7.63
24.096	23.14	32.04	-0.04	7.53
24.128	23.14	32.04	-0.04	7.53
24.160	23.65	32.55	-0.04	7.53
24.192	23.65	32.55	0.01	7.59
24.224	23.65	32.55	0.01	7.59
24.256	23.28	32.18	0.01	7.59
24.288	23.28	32.18	0.03	7.61
24.320	23.28	32.18	0.03	7.61
24.352	23.02	31.92	0.03	7.61
24.384	23.02	31.92	-0.06	7.52
24.416	23.02	31.92	-0.06	7.52
24.448	22.26	31.16	-0.06	7.52
24.480	22.26	31.16	0.05	7.63
24.512	22.26	31.16	0.05	7.63
24.544	22.79	31.69	0.05	7.63
24.576	22.79	31.69	-0.04	7.53
24.608	22.79	31.69	-0.04	7.53
24.640	23.02	31.92	-0.04	7.53
24.672	23.02	31.92	0.01	7.59
24.704	23.02	31.92	0.01	7.59
24.736	22.60	31.50	0.01	7.59
24.768	22.60	31.50	0.03	7.60
24.800	22.60	31.50	0.03	7.60
24.832	22.70	31.60	0.03	7.60
24.864	22.70	31.60	-0.06	7.52
24.896	22.70	31.60	-0.06	7.52
24.928	22.28	31.18	-0.06	7.52
24.960	22.28	31.18	0.05	7.63
24.992	22.28	31.18	0.05	7.63
25.024	22.59	31.49	0.05	7.63
25.056	22.59	31.49	-0.04	7.53
25.088	22.59	31.49	-0.04	7.53
25.120	22.29	31.19	-0.04	7.53
25.152	22.29	31.19	0.01	7.59
25.184	22.29	31.19	0.01	7.59
25.216	23.21	32.11	0.01	7.59
25.248	23.21	32.11	0.03	7.61
25.280	23.21	32.11	0.03	7.61
25.312	22.82	31.72	0.03	7.61
25.344	22.82	31.72	-0.06	7.52
25.376	22.82	31.72	-0.06	7.52
25.408	22.14	31.04	-0.06	7.52
25.440	22.14	31.04	0.05	7.63
25.472	22.14	31.04	0.05	7.63
25.504	22.55	31.45	0.05	7.63
25.536	22.55	31.45	-0.04	7.54
25.568	22.55	31.45	-0.04	7.54
25.600	22.96	31.87	-0.04	7.54
25.632	22.96	31.87	0.01	7.59
25.664	22.96	31.87	0.01	7.59
25.696	21.65	30.55	0.01	7.59
25.728	21.65	30.55	0.03	7.60
25.760	21.65	30.55	0.03	7.60
25.792	21.73	30.63	0.03	7.60
25.824	21.73	30.63	-0.06	7.52
25.856	21.73	30.63	-0.06	7.52
25.888	21.61	30.52	-0.06	7.52
25.920	21.61	30.52	0.05	7.62
25.952	21.61	30.52	0.05	7.62
25.984	21.68	30.58	0.05	7.62
26.016	21.68	30.58	-0.04	7.53
26.048	21.68	30.58	-0.04	7.53
26.080	23.35	32.25	-0.04	7.53
26.112	23.35	32.25	0.01	7.58
26.144	23.35	32.25	0.01	7.58
26.176	22.71	31.61	0.01	7.58
26.208	22.71	31.61	0.03	7.61
26.240	22.71	31.61	0.03	7.61
26.272	23.34	32.24	0.03	7.61
26.304	23.34	32.24	-0.05	7.52
26.336	23.34	32.24	-0.05	7.52
26.368	23.27	32.17	-0.05	7.52
26.400	23.27	32.17	0.05	7.62
26.432	23.27	32.17	0.05	7.62
26.464	23.43	32.33	0.05	7.62
26.496	23.43	32.33	-0.04	7.53
26.528	23.43	32.33	-0.04	7.53
26.560	23.59	32.49	-0.04	7.53
26.592	23.59	32.49	0.01	7.58
26.624	23.59	32.49	0.01	7.58
26.656	22.23	31.13	0.01	7.58
26.688	22.23	31.13	0.04	7.61
26.720	22.23	31.13	0.04	7.61
26.752	22.31	31.22	0.04	7.61
26.784	22.31	31.22	-0.06	7.52
26.816	22.31	31.22	-0.06	7.52
26.848	20.97	29.87	-0.06	7.52
26.880	20.97	29.87	0.05	7.62
26.912	20.97	29.87	0.05	7.62
26.944	21.06	29.96	0.05	7.62
26.976	21.06	29.96	-0.04	7.54
27.008	21.06	29.96	-0.04	7.54
27.040	21.01	29.91	-0.04	7.54
27.072	21.01	29.91	0.00	7.58
27.104	21.01	29.91	0.00	7.58
27.136	20.86	29.76	0.00	7.58
27.168	20.86	29.76	0.04	7.61
27.200	20.86	29.76	0.04	7.61
27.232	20.61	29.51	0.04	7.61
27.264	20.61	29.51	-0.06	7.52
27.296	20.61	29.51	-0.06	7.52
27.328	21.07	29.97	-0.06	7.52
27.360	21.07	29.97	0.05	7.62
27.392	21.07	29.97	0.05	7.62
27.424	20.82	29.72	0.05	7.62
27.456	20.82	29.72	-0.04	7.54
27.488	20.82	29.72	-0.04	7.54
27.520	20.99	29.89	-0.04	7.54
27.552	20.99	29.89	0.00	7.58
27.584	20.99	29.89	0.00	7.58
27.616	21.66	30.56	0.00	7.58
27.648	21.66	30.56	0.04	7.62
27.680	21.66	30.56	0.04	7.62
27.712	21.49	30.39	0.04	7.62
27.744	21.49	30.39	-0.06	7.52
27.776	21.49	30.39	-0.06	7.52
27.808	21.55	30.45	-0.06	7.52
27.840	21.55	30.45	0.05	7.62
27.872	21.55	30.45	0.05	7.62
27.904	21.72	30.62	0.05	7.62
27.936	21.72	30.62	-0.04	7.53
27.968	21.72	30.62	-0.04	7.53
28.000	20.87	29.77	-0.04	7.53
28.032	20.87	29.77	-0.00	7.57
28.064	20.87	29.77	-0.00	7.57
28.096	21.48	30.38	-0.00	7.57
28.128	21.48	30.38	0.04	7.62
28.160	21.48	30.38	0.04	7.62
28.192	20.27	29.17	0.04	7.62
28.224	20.27	29.17	-0.06	7.51
28.256	20.27	29.17	-0.06	7.51
28.288	20.24	29.14	-0.06	7.51
28.320	20.24	29.14	0.05	7.62
28.352	20.24	29.14	0.05	7.62
28.384	19.40	28.30	0.05	7.62
28.416	19.40	28.30	-0.04	7.53
28.448	19.40	28.30	-0.04	7.53
28.480	19.53	28.43	-0.04	7.53
28.512	19.53	28.43	-0.00	7.58
28.544	19.53	28.43	-0.00	7.58
28.576	19.36	28.26	-0.00	7.58
28.608	19.36	28.26	0.04	7.62
28.640	19.36	28.26	0.04	7.62
28.672	18.61	27.51	0.04	7.62
28.704	18.61	27.51	-0.06	7.52
28.736	18.61	27.51	-0.06	7.52
28.768	19.18	28.08	-0.06	7.52
28.800	19.18	28.08	0.04	7.62
28.832	19.18	28.08	0.04	7.62
28.864	18.43	27.33	0.04	7.62
28.896	18.43	27.33	-0.04	7.54
28.928	18.43	27.33	-0.04	7.54
28.960	18.77	27.67	-0.04	7.54
28.992	18.77	27.67	-0.01	7.57
29.024	18.77	27.67	-0.01	7.57
29.056	19.34	28.24	-0.01	7.57
29.088	19.34	28.24	0.04	7.62
29.120	19.34	28.24	0.04	7.62
29.152	18.67	27.57	0.04	7.62
29.184	18.67	27.57	-0.06	7.52
29.216	18.67	27.57	-0.06	7.52
29.248	18.54	27.44	-0.06	7.52
29.280	18.54	27.44	0.04	7.62
29.312	18.54	27.44	0.04	7.62
29.344	18.34	27.24	0.04	7.62
29.376	18.34	27.24	-0.04	7.54
29.408	18.34	27.24	-0.04	7.54
29.440	18.94	27.84	-0.04	7.54
29.472	18.94	27.84	-0.01	7.57
29.504	18.94	27.84	-0.01	7.57
29.536	18.28	27.18	-0.01	7.57
29.568	18.28	27.18	0.04	7.62
29.600	18.28	27.18	0.04	7.62
29.632	18.22	27.12	0.04	7.62
29.664	18.22	27.12	-0.06	7.52
29.696	18.22	27.12	-0.06	7.52
29.728	17.96	26.86	-0.06	7.52
29.760	17.96	26.86	0.04	7.62
29.792	17.96	26.86	0.04	7.62
29.824	18.41	27.31	0.04	7.62
29.856	18.41	27.31	-0.04	7.54
29.888	18.41	27.31	-0.04	7.54
29.920	18.53	27.43	-0.04	7.54
29.952	18.53	27.43	-0.01	7.56
29.984	18.53	27.43	-0.01	7.56
30.016	18.41	27.31	-0.01	7.56
30.048	18.41	27.31	0.05	7.62
30.080	18.41	27.31	0.05	7.62
30.112	18.50	27.40	0.05	7.62
30.144	18.50	27.40	-0.06	7.52
30.176	18.50	27.40	-0.06	7.52
30.208	18.75	27.65	-0.06	7.52
30.240	18.75	27.65	0.04	7.62
30.272	18.75	27.65	0.04	7.62
30.304	18.70	27.60	0.04	7.62
30.336	18.70	27.60	-0.03	7.54
30.368	18.70	27.60	-0.03	7.54
30.400	17.89	26.79	-0.03	7.54
30.432	17.89	26.79	-0.02	7.56
30.464	17.89	26.79	-0.02	7.56
30.496	17.63	26.53	-0.02	7.56
30.528	17.63	26.53	0.05	7.62
30.560	17.63	26.53	0.05	7.62
30.592	18.44	27.34	0.05	7.62
30.624	18.44	27.34	-0.06	7.52
30.656	18.44	27.34	-0.06	7.52
30.688	18.78	27.68	-0.06	7.52
30.720	18.78	27.68	0.04	7.62
30.752	18.78	27.68	0.04	7.62
30.784	18.10	27.00	0.04	7.62
30.816	18.10	27.00	-0.04	7.54
30.848	18.10	27.00	-0.04	7.54
30.880	18.32	27.22	-0.04	7.54
30.912	18.32	27.22	-0.02	7.56
30.944	18.32	27.22	-0.02	7.56
30.976	18.76	27.66	-0.02	7.56
31.008	18.76	27.66	0.04	7.62
31.040	18.76	27.66	0.04	7.62
31.072	19.16	28.06	0.04	7.62
31.104	19.16	28.06	-0.06	7.52
31.136	19.16	28.06	-0.06	7.52
31.168	19.40	28.30	-0.06	7.52
31.200	19.40	28.30	0.04	7.62
31.232	19.40	28.30	0.04	7.62
31.264	19.03	27.93	0.04	7.62
31.296	19.03	27.93	-0.03	7.54
31.328	19.03	27.93	-0.03	7.54
31.360	18.70	27.60	-0.03	7.54
31.392	18.70	27.60	-0.02	7.55
31.424	18.70	27.60	-0.02	7.55
31.456	18.07	26.98	-0.02	7.55
31.488	18.07	26.98	0.05	7.62
31.520	18.07	26.98	0.05	7.62
31.552	18.60	27.50	0.05	7.62
31.584	18.60	27.50	-0.06	7.52
31.616	18.60	27.50	-0.06	7.52
31.648	18.50	27.40	-0.06	7.52
31.680	18.50	27.40	0.04	7.61
31.712	18.50	27.40	0.04	7.61
31.744	19.08	27.98	0.04	7.61
31.776	19.08	27.98	-0.03	7.54
31.808	19.08	27.98	-0.03	7.54
31.840	18.54	27.44	-0.03	7.54
31.872	18.54	27.44	-0.03	7.55
31.904	18.54	27.44	-0.03	7.55
31.936	18.22	27.12	-0.03	7.55
31.968	18.22	27.12	0.05	7.62
32.000	18.22	27.12	0.05	7.62
32.032	18.39	27.29	0.05	7.62
32.064	18.39	27.29	-0.05	7.52
32.096	18.39	27.29	-0.05	7.52
32.128	18.60	27.50	-0.05	7.52
32.160	18.60	27.50	0.04	7.61
32.192	18.60	27.50	0.04	7.61
32.224	18.54	27.44	0.04	7.61
32.256	18.54	27.44	-0.03	7.54
32.288	18.54	27.44	-0.03	7.54
32.320	18.15	27.05	-0.03	7.54
32.352	18.15	27.05	-0.03	7.55
32.384	18.15	27.05	-0.03	7.55
32.416	18.16	27.06	-0.03	7.55
32.448	18.16	27.06	0.04	7.62
32.480	18.16	27.06	0.04	7.62
32.512	17.85	26.75	0.04	7.62
32.544	17.85	26.75	-0.06	7.52
32.576	17.85	26.75	-0.06	7.52
32.608	18.53	27.43	-0.06	7.52
32.640	18.53	27.43	0.04	7.61
32.672	18.53	27.43	0.04	7.61
32.704	18.34	27.24	0.04	7.61
32.736	18.34	27.24	-0.03	7.55
32.768	18.34	27.24	-0.03	7.55
32.800	18.06	26.96	-0.03	7.55
32.832	18.06	26.96	-0.03	7.54
32.864	18.06	26.96	-0.03	7.54
32.896	17.94	26.84	-0.03	7.54
32.928	17.94	26.84	0.05	7.62
32.960	17.94	26.84	0.05	7.62
32.992	18.68	27.58	0.05	7.62
33.024	18.68	27.58	-0.06	7.52
33.056	18.68	27.58	-0.06	7.52
33.088	18.50	27.40	-0.06	7.52
33.120	18.50	27.40	0.04	7.61
33.152	18.50	27.40	0.04	7.61
33.184	18.31	27.22	0.04	7.61
33.216	18.31	27.22	-0.02	7.55
33.248	18.31	27.22	-0.02	7.55
33.280	18.68	27.58	-0.02	7.55
33.312	18.68	27.58	-0.04	7.54
33.344	18.68	27.58	-0.04	7.54
33.376	18.03	26.93	-0.04	7.54
33.408	18.03	26.93	0.05	7.62
33.440	18.03	26.93	0.05	7.62
33.472	17.69	26.59	0.05	7.62
33.504	17.69	26.59	-0.06	7.52
33.536	17.69	26.59	-0.06	7.52
33.568	18.02	26.93	-0.06	7.52
33.600	18.02	26.93	0.04	7.61
33.632	18.02	26.93	0.04	7.61
33.664	17.88	26.78	0.04	7.61
33.696	17.88	26.78	-0.03	7.55
33.728	17.88	26.78	-0.03	7.55
33.760	17.73	26.63	-0.03	7.55
33.792	17.73	26.63	-0.04	7.54
33.824	17.73	26.63	-0.04	7.54
33.856	18.25	27.15	-0.04	7.54
33.888	18.25	27.15	0.05	7.62
33.920	18.25	27.15	0.05	7.62
33.952	18.34	27.24	0.05	7.62
33.984	18.34	27.24	-0.05	7.52
34.016	18.34	27.24	-0.05	7.52
34.048	18.71	27.61	-0.05	7.52
34.080	18.71	27.61	0.03	7.61
34.112	18.71	27.61	0.03	7.61
34.144	18.87	27.77	0.03	7.61
34.176	18.87	27.77	-0.02	7.55
34.208	18.87	27.77	-0.02	7.55
34.240	18.07	26.97	-0.02	7.55
34.272	18.07	26.97	-0.04	7.53
34.304	18.07	26.97	-0.04	7.53
34.336	18.19	27.09	-0.04	7.53
34.368	18.19	27.09	0.05	7.62
34.400	18.19	27.09	0.05	7.62
34.432	18.25	27.15	0.05	7.62
34.464	18.25	27.15	-0.05	7.52
34.496	18.25	27.15	-0.05	7.52
34.528	18.80	27.70	-0.05	7.52
34.560	18.80	27.70	0.04	7.61
34.592	18.80	27.70	0.04	7.61
34.624	18.99	27.89	0.04	7.61
34.656	18.99	27.89	-0.02	7.56
34.688	18.99	27.89	-0.02	7.56
34.720	19.07	27.97	-0.02	7.56
34.752	19.07	27.97	-0.05	7.53
34.784	19.07	27.97	-0.05	7.53
34.816	18.70	27.60	-0.05	7.53
34.848	18.70	27.60	0.05	7.62
34.880	18.70	27.60	0.05	7.62
34.912	18.67	27.57	0.05	7.62
34.944	18.67	27.57	-0.06	7.52
34.976	18.67	27.57	-0.06	7.52
35.008	18.68	27.58	-0.06	7.52
35.040	18.68	27.58	0.03	7.61
35.072	18.68	27.58	0.03	7.61
35.104	19.89	28.79	0.03	7.61
35.136	19.89	28.79	-0.01	7.56
35.168	19.89	28.79	-0.01	7.56
35.200	19.72	28.62	-0.01	7.56
35.232	19.72	28.62	-0.05	7.53
35.264	19.72	28.62	-0.05	7.53
35.296	19.07	27.97	-0.05	7.53
35.328	19.07	27.97	0.05	7.62
35.360	19.07	27.97	0.05	7.62
35.392	19.31	28.21	0.05	7.62
35.424	19.31	28.21	-0.05	7.52
35.456	19.31	28.21	-0.05	7.52
35.488	19.25	28.15	-0.05	7.52
35.520	19.25	28.15	0.03	7.61
35.552	19.25	28.15	0.03	7.61
35.584	20.03	28.93	0.03	7.61
35.616	20.03	28.93	-0.01	7.57
35.648	20.03	28.93	-0.01	7.57
35.680	19.33	28.23	-0.01	7.57
35.712	19.33	28.23	-0.05	7.53
35.744	19.33	28.23	-0.05	7.53
35.776	19.36	28.26	-0.05	7.53
35.808	19.36	28.26	0.05	7.63
35.840	19.36	28.26	0.05	7.63
35.872	18.98	27.88	0.05	7.63
35.904	18.98	27.88	-0.05	7.52
35.936	18.98	27.88	-0.05	7.52
35.968	18.45	27.35	-0.05	7.52
36.000	18.45	27.35	0.03	7.60
36.032	18.45	27.35	0.03	7.60
36.064	18.56	27.46	0.03	7.60
36.096	18.56	27.46	-0.01	7.57
36.128	18.56	27.46	-0.01	7.57
36.160	18.75	27.65	-0.01	7.57
36.192	18.75	27.65	-0.05	7.53
36.224	18.75	27.65	-0.05	7.53
36.256	18.71	27.61	-0.05	7.53
36.288	18.71	27.61	0.05	7.63
36.320	18.71	27.61	0.05	7.63
36.352	19.02	27.92	0.05	7.63
36.384	19.02	27.92	-0.05	7.53
36.416	19.02	27.92	-0.05	7.53
36.448	20.16	29.07	-0.05	7.53
36.480	20.16	29.07	0.03	7.60
36.512	20.16	29.07	0.03	7.60
36.544	18.85	27.75	0.03	7.60
36.576	18.85	27.75	-0.01	7.57
36.608	18.85	27.75	-0.01	7.57
36.640	18.55	27.45	-0.01	7.57
36.672	18.55	27.45	-0.05	7.52
36.704	18.55	27.45	-0.05	7.52
36.736	19.30	28.20	-0.05	7.52
36.768	19.30	28.20	0.05	7.63
36.800	19.30	28.20	0.05	7.63
36.832	18.81	27.72	0.05	7.63
36.864	18.81	27.72	-0.05	7.53
36.896	18.81	27.72	-0.05	7.53
36.928	18.72	27.62	-0.05	7.53
36.960	18.72	27.62	0.02	7.60
36.992	18.72	27.62	0.02	7.60
37.024	18.96	27.86	0.02	7.60
37.056	18.96	27.86	-0.00	7.58
37.088	18.96	27.86	-0.00	7.58
37.120	19.01	27.91	-0.00	7.58
37.152	19.01	27.91	-0.05	7.52
37.184	19.01	27.91	-0.05	7.52
37.216	19.49	28.39	-0.05	7.52
37.248	19.49	28.39	0.05	7.63
37.280	19.49	28.39	0.05	7.63
37.312	19.36	28.26	0.05	7.63
37.344	19.36	28.26	-0.05	7.53
37.376	19.36	28.26	-0.05	7.53
37.408	19.25	28.15	-0.05	7.53
37.440	19.25	28.15	0.03	7.60
37.472	19.25	28.15	0.03	7.60
37.504	18.76	27.67	0.03	7.60
37.536	18.76	27.67	0.00	7.58
37.568	18.76	27.67	0.00	7.58
37.600	18.68	27.58	0.00	7.58
37.632	18.68	27.58	-0.05	7.53
37.664	18.68	27.58	-0.05	7.53
37.696	18.70	27.60	-0.05	7.53
37.728	18.70	27.60	0.05	7.63
37.760	18.70	27.60	0.05	7.63
37.792	18.69	27.59	0.05	7.63
37.824	18.69	27.59	-0.05	7.52
37.856	18.69	27.59	-0.05	7.52
37.888	18.74	27.64	-0.05	7.52
37.920	18.74	27.64	0.03	7.60
37.952	18.74	27.64	0.03	7.60
37.984	18.90	27.80	0.03	7.60
38.016	18.90	27.80	-0.00	7.58
38.048	18.90	27.80	-0.00	7.58
38.080	18.75	27.65	-0.00	7.58
38.112	18.75	27.65	-0.05	7.52
38.144	18.75	27.65	-0.05	7.52
38.176	19.11	28.01	-0.05	7.52
38.208	19.11	28.01	0.05	7.63
38.240	19.11	28.01	0.05	7.63
38.272	19.95	28.85	0.05	7.63
38.304	19.95	28.85	-0.05	7.53
38.336	19.95	28.85	-0.05	7.53
38.368	20.00	28.90	-0.05	7.53
38.400	20.00	28.90	0.02	7.60
38.432	20.00	28.90	0.02	7.60
38.464	19.74	28.64	0.02	7.60
38.496	19.74	28.64	0.00	7.58
38.528	19.74	28.64	0.00	7.58
38.560	19.91	28.81	0.00	7.58
38.592	19.91	28.81	-0.05	7.52
38.624	19.91	28.81	-0.05	7.52
38.656	20.09	28.99	-0.05	7.52
38.688	20.09	28.99	0.05	7.63
38.720	20.09	28.99	0.05	7.63
38.752	19.71	28.61	0.05	7.63
38.784	19.71	28.61	-0.05	7.53
38.816	19.71	28.61	-0.05	7.53
38.848	20.10	29.00	-0.05	7.53
38.880	20.10	29.00	0.02	7.60
38.912	20.10	29.00	0.02	7.60
38.944	20.43	29.33	0.02	7.60
38.976	20.43	29.33	0.01	7.58
39.008	20.43	29.33	0.01	7.58
39.040	20.25	29.15	0.01	7.58
39.072	20.25	29.15	-0.05	7.52
39.104	20.25	29.15	-0.05	7.52
39.136	20.82	29.72	-0.05	7.52
39.168	20.82	29.72	0.05	7.63
39.200	20.82	29.72	0.05	7.63
39.232	20.69	29.59	0.05	7.63
39.264	20.69	29.59	-0.05	7.53
39.296	20.69	29.59	-0.05	7.53
39.328	21.17	30.07	-0.05	7.53
39.360	21.17	30.07	0.02	7.60
39.392	21.17	30.07	0.02	7.60
39.424	20.90	29.80	0.02	7.60
39.456	20.90	29.80	0.01	7.58
39.488	20.90	29.80	0.01	7.58
39.520	19.95	28.85	0.01	7.58
39.552	19.95	28.85	-0.05	7.52
39.584	19.95	28.85	-0.05	7.52
39.616	20.24	29.14	-0.05	7.52
39.648	20.24	29.14	0.05	7.63
39.680	20.24	29.14	0.05	7.63
39.712	20.25	29.15	0.05	7.63
39.744	20.25	29.15	-0.05	7.53
39.776	20.25	29.15	-0.05	7.53
39.808	20.58	29.48	-0.05	7.53
39.840	20.58	29.48	0.02	7.60
39.872	20.58	29.48	0.02	7.60
39.904	19.83	28.73	0.02	7.60
39.936	19.83	28.73	0.01	7.59
39.968	19.83	28.73	0.01	7.59
40.000	19.88	28.78	0.01	7.59
40.032	19.88	28.78	-0.05	7.52
40.064	19.88	28.78	-0.05	7.52
40.096	20.41	29.31	-0.05	7.52
40.128	20.41	29.31	0.05	7.63
40.160	20.41	29.31	0.05	7.63
40.192	20.27	29.17	0.05	7.63
40.224	20.27	29.17	-0.05	7.53
40.256	20.27	29.17	-0.05	7.53
40.288	20.54	29.44	-0.05	7.53
40.320	20.54	29.44	0.02	7.60
40.352	20.54	29.44	0.02	7.60
40.384	20.11	29.01	0.02	7.60
40.416	20.11	29.01	0.01	7.59
40.448	20.11	29.01	0.01	7.59
40.480	19.95	28.85	0.01	7.59
40.512	19.95	28.85	-0.05	7.52
40.544	19.95	28.85	-0.05	7.52
40.576	20.03	28.93	-0.05	7.52
40.608	20.03	28.93	0.05	7.63
40.640	20.03	28.93	0.05	7.63
40.672	20.10	29.00	0.05	7.63
40.704	20.10	29.00	-0.04	7.53
40.736	20.10	29.00	-0.04	7.53
40.768	19.36	28.26	-0.04	7.53
40.800	19.36	28.26	0.02	7.60
40.832	19.36	28.26	0.02	7.60
40.864	19.28	28.18	0.02	7.60
40.896	19.28	28.18	0.01	7.59
40.928	19.28	28.18	0.01	7.59
40.960	19.23	28.13	0.01	7.59
40.992	19.23	28.13	-0.05	7.52
41.024	19.23	28.13	-0.05	7.52
41.056	19.04	27.94	-0.05	7.52
41.088	19.04	27.94	0.05	7.62
41.120	19.04	27.94	0.05	7.62
41.152	19.69	28.59	0.05	7.62
41.184	19.69	28.59	-0.04	7.53
41.216	19.69	28.59	-0.04	7.53
41.248	19.89	28.79	-0.04	7.53
41.280	19.89	28.79	0.02	7.59
41.312	19.89	28.79	0.02	7.59
41.344	19.67	28.58	0.02	7.59
41.376	19.67	28.58	0.02	7.59
41.408	19.67	28.58	0.02	7.59
41.440	19.40	28.30	0.02	7.59
41.472	19.40	28.30	-0.05	7.52
41.504	19.40	28.30	-0.05	7.52
41.536	19.78	28.68	-0.05	7.52
41.568	19.78	28.68	0.05	7.63
41.600	19.78	28.68	0.05	7.63
41.632	19.99	28.89	0.05	7.63
41.664	19.99	28.89	-0.04	7.53
41.696	19.99	28.89	-0.04	7.53
41.728	19.33	28.23	-0.04	7.53
41.760	19.33	28.23	0.02	7.60
41.792	19.33	28.23	0.02	7.60
41.824	19.98	28.88	0.02	7.60
41.856	19.98	28.88	0.02	7.60
41.888	19.98	28.88	0.02	7.60
41.920	19.77	28.67	0.02	7.60
41.952	19.77	28.67	-0.05	7.52
41.984	19.77	28.67	-0.05	7.52
42.016	19.63	28.53	-0.05	7.52
42.048	19.63	28.53	0.05	7.63
42.080	19.63	28.53	0.05	7.63
42.112	19.68	28.58	0.05	7.63
42.144	19.68	28.58	-0.04	7.53
42.176	19.68	28.58	-0.04	7.53
42.208	19.83	28.73	-0.04	7.53
42.240	19.83	28.73	0.02	7.59
42.272	19.83	28.73	0.02	7.59
42.304	20.48	29.38	0.02	7.59
42.336	20.48	29.38	0.02	7.60
42.368	20.48	29.38	0.02	7.60
42.400	19.81	28.71	0.02	7.60
42.432	19.81	28.71	-0.06	7.52
42.464	19.81	28.71	-0.06	7.52
42.496	20.17	29.07	-0.06	7.52
42.528	20.17	29.07	0.05	7.63
42.560	20.17	29.07	0.05	7.63
42.592	20.30	29.20	0.05	7.63
42.624	20.30	29.20	-0.04	7.53
42.656	20.30	29.20	-0.04	7.53
42.688	19.94	28.84	-0.04	7.53
42.720	19.94	28.84	0.02	7.59
42.752	19.94	28.84	0.02	7.59
42.784	19.50	28.40	0.02	7.59
42.816	19.50	28.40	0.02	7.60
42.848	19.50	28.40	0.02	7.60
42.880	19.65	28.55	0.02	7.60
42.912	19.65	28.55	-0.05	7.52
42.944	19.65	28.55	-0.05	7.52
42.976	19.74	28.64	-0.05	7.52
43.008	19.74	28.64	0.05	7.63
43.040	19.74	28.64	0.05	7.63
43.072	19.61	28.51	0.05	7.63
43.104	19.61	28.51	-0.04	7.53
43.136	19.61	28.51	-0.04	7.53
43.168	20.80	29.70	-0.04	7.53
43.200	20.80	29.70	0.01	7.59
43.232	20.80	29.70	0.01	7.59
43.264	20.85	29.75	0.01	7.59
43.296	20.85	29.75	0.02	7.60
43.328	20.85	29.75	0.02	7.60
43.360	21.09	29.99	0.02	7.60
43.392	21.09	29.99	-0.05	7.52
43.424	21.09	29.99	-0.05	7.52
43.456	20.05	28.95	-0.05	7.52
43.488	20.05	28.95	0.05	7.63
43.520	20.05	28.95	0.05	7.63
43.552	20.62	29.52	0.05	7.63
43.584	20.62	29.52	-0.04	7.53
43.616	20.62	29.52	-0.04	7.53
43.648	20.80	29.70	-0.04	7.53
43.680	20.80	29.70	0.01	7.59
43.712	20.80	29.70	0.01	7.59
43.744	20.33	29.23	0.01	7.59
43.776	20.33	29.23	0.02	7.60
43.808	20.33	29.23	0.02	7.60
43.840	20.83	29.73	0.02	7.60
43.872	20.83	29.73	-0.05	7.52
43.904	20.83	29.73	-0.05	7.52
43.936	20.51	29.41	-0.05	7.52
43.968	20.51	29.41	0.05	7.63
44.000	20.51	29.41	0.05	7.63
44.032	19.85	28.75	0.05	7.63
44.064	19.85	28.75	-0.04	7.53
44.096	19.85	28.75	-0.04	7.53
44.128	19.55	28.45	-0.04	7.53
44.160	19.55	28.45	0.01	7.59
44.192	19.55	28.45	0.01	7.59
44.224	20.24	29.14	0.01	7.59
44.256	20.24	29.14	0.03	7.61
44.288	20.24	29.14	0.03	7.61
44.320	21.09	29.99	0.03	7.61
44.352	21.09	29.99	-0.06	7.52
44.384	21.09	29.99	-0.06	7.52
44.416	19.58	28.48	-0.06	7.52
44.448	19.58	28.48	0.05	7.63
44.480	19.58	28.48	0.05	7.63
44.512	20.00	28.90	0.05	7.63
44.544	20.00	28.90	-0.04	7.54
44.576	20.00	28.90	-0.04	7.54
44.608	20.16	29.06	-0.04	7.54
44.640	20.16	29.06	0.01	7.59
44.672	20.16	29.06	0.01	7.59
44.704	20.00	28.90	0.01	7.59
44.736	20.00	28.90	0.03	7.61
44.768	20.00	28.90	0.03	7.61
44.800	21.53	30.43	0.03	7.61
44.832	21.53	30.43	-0.06	7.52
44.864	21.53	30.43	-0.06	7.52
44.896	21.09	29.99	-0.06	7.52
44.928	21.09	29.99	0.05	7.63
44.960	21.09	29.99	0.05	7.63
44.992	21.23	30.13	0.05	7.63
45.024	21.23	30.13	-0.04	7.54
45.056	21.23	30.13	-0.04	7.54
45.088	21.36	30.26	-0.04	7.54
45.120	21.36	30.26	0.01	7.59
45.152	21.36	30.26	0.01	7.59
45.184	21.03	29.93	0.01	7.59
45.216	21.03	29.93	0.03	7.61
45.248	21.03	29.93	0.03	7.61
45.280	21.06	29.96	0.03	7.61
45.312	21.06	29.96	-0.06	7.52
45.344	21.06	29.96	-0.06	7.52
45.376	20.41	29.32	-0.06	7.52
45.408	20.41	29.32	0.05	7.63
45.440	20.41	29.32	0.05	7.63
45.472	20.50	29.40	0.05	7.63
45.504	20.50	29.40	-0.04	7.53
45.536	20.50	29.40	-0.04	7.53
45.568	20.70	29.60	-0.04	7.53
45.600	20.70	29.60	0.01	7.59
45.632	20.70	29.60	0.01	7.59
45.664	20.93	29.83	0.01	7.59
45.696	20.93	29.83	0.03	7.61
45.728	20.93	29.83	0.03	7.61
45.760	20.73	29.63	0.03	7.61
45.792	20.73	29.63	-0.06	7.52
45.824	20.73	29.63	-0.06	7.52
45.856	20.99	29.89	-0.06	7.52
45.888	20.99	29.89	0.05	7.63
45.920	20.99	29.89	0.05	7.63
45.952	20.87	29.77	0.05	7.63
45.984	20.87	29.77	-0.04	7.53
46.016	20.87	29.77	-0.04	7.53
46.048	20.74	29.64	-0.04	7.53
46.080	20.74	29.64	0.00	7.58
46.112	20.74	29.64	0.00	7.58
46.144	21.01	29.92	0.00	7.58
46.176	21.01	29.92	0.04	7.61
46.208	21.01	29.92	0.04	7.61
46.240	21.26	30.16	0.04	7.61
46.272	21.26	30.16	-0.06	7.52
46.304	21.26	30.16	-0.06	7.52
46.336	19.84	28.74	-0.06	7.52
46.368	19.84	28.74	0.05	7.63
46.400	19.84	28.74	0.05	7.63
46.432	19.87	28.77	0.05	7.63
46.464	19.87	28.77	-0.04	7.53
46.496	19.87	28.77	-0.04	7.53
46.528	21.46	30.36	-0.04	7.53
46.560	21.46	30.36	0.01	7.58
46.592	21.46	30.36	0.01	7.58
46.624	22.37	31.27	0.01	7.58
46.656	22.37	31.27	0.04	7.61
46.688	22.37	31.27	0.04	7.61
46.720	22.45	31.35	0.04	7.61
46.752	22.45	31.35	-0.06	7.52
46.784	22.45	31.35	-0.06	7.52
46.816	21.75	30.65	-0.06	7.52
46.848	21.75	30.65	0.05	7.62
46.880	21.75	30.65	0.05	7.62
46.912	21.54	30.44	0.05	7.62
46.944	21.54	30.44	-0.04	7.54
46.976	21.54	30.44	-0.04	7.54
47.008	21.14	30.04	-0.04	7.54
47.040	21.14	30.04	0.00	7.58
47.072	21.14	30.04	0.00	7.58
47.104	20.44	29.34	0.00	7.58
47.136	20.44	29.34	0.04	7.62
47.168	20.44	29.34	0.04	7.62
47.200	21.72	30.62	0.04	7.62
47.232	21.72	30.62	-0.05	7.52
47.264	21.72	30.62	-0.05	7.52
47.296	21.28	30.18	-0.05	7.52
47.328	21.28	30.18	0.04	7.62
47.360	21.28	30.18	0.04	7.62
47.392	21.03	29.93	0.04	7.62
47.424	21.03	29.93	-0.04	7.54
47.456	21.03	29.93	-0.04	7.54
47.488	20.90	29.80	-0.04	7.54
47.520	20.90	29.80	-0.00	7.57
47.552	20.90	29.80	-0.00	7.57
47.584	22.14	31.04	-0.00	7.57
47.616	22.14	31.04	0.04	7.61
47.648	22.14	31.04	0.04	7.61
47.680	21.25	30.15	0.04	7.61
47.712	21.25	30.15	-0.06	7.52
47.744	21.25	30.15	-0.06	7.52
47.776	21.35	30.25	-0.06	7.52
47.808	21.35	30.25	0.04	7.62
47.840	21.35	30.25	0.04	7.62
47.872	21.88	30.78	0.04	7.62
47.904	21.88	30.78	-0.04	7.54
47.936	21.88	30.78	-0.04	7.54
47.968	21.10	30.00	-0.04	7.54
48.000	21.10	30.00	-0.00	7.57
48.032	21.10	30.00	-0.00	7.57
48.064	20.99	29.89	-0.00	7.57
48.096	20.99	29.89	0.04	7.62
48.128	20.99	29.89	0.04	7.62
48.160	21.75	30.65	0.04	7.62
48.192	21.75	30.65	-0.06	7.52
48.224	21.75	30.65	-0.06	7.52
48.256	21.53	30.43	-0.06	7.52
48.288	21.53	30.43	0.04	7.62
48.320	21.53	30.43	0.04	7.62
48.352	20.96	29.86	0.04	7.62
48.384	20.96	29.86	-0.04	7.54
48.416	20.96	29.86	-0.04	7.54
48.448	21.19	30.09	-0.04	7.54
48.480	21.19	30.09	-0.01	7.57
48.512	21.19	30.09	-0.01	7.57
48.544	21.06	29.96	-0.01	7.57
48.576	21.06	29.96	0.04	7.62
48.608	21.06	29.96	0.04	7.62
48.640	21.32	30.22	0.04	7.62
48.672	21.32	30.22	-0.06	7.52
48.704	21.32	30.22	-0.06	7.52
48.736	21.63	30.53	-0.06	7.52
48.768	21.63	30.53	0.04	7.62
48.800	21.63	30.53	0.04	7.62
48.832	21.34	30.24	0.04	7.62
48.864	21.34	30.24	-0.04	7.54
48.896	21.34	30.24	-0.04	7.54
48.928	22.01	30.91	-0.04	7.54
48.960	22.01	30.91	-0.01	7.57
48.992	22.01	30.91	-0.01	7.57
49.024	21.54	30.44	-0.01	7.57
49.056	21.54	30.44	0.05	7.62
49.088	21.54	30.44	0.05	7.62
49.120	21.21	30.11	0.05	7.62
49.152	21.21	30.11	-0.06	7.51
49.184	21.21	30.11	-0.06	7.51
49.216	21.95	30.85	-0.06	7.51
49.248	21.95	30.85	0.04	7.62
49.280	21.95	30.85	0.04	7.62
49.312	21.64	30.54	0.04	7.62
49.344	21.64	30.54	-0.04	7.54
49.376	21.64	30.54	-0.04	7.54
49.408	21.40	30.30	-0.04	7.54
49.440	21.40	30.30	-0.01	7.57
49.472	21.40	30.30	-0.01	7.57
49.504	21.14	30.04	-0.01	7.57
49.536	21.14	30.04	0.04	7.62
49.568	21.14	30.04	0.04	7.62
49.600	22.07	30.97	0.04	7.62
49.632	22.07	30.97	-0.06	7.51
49.664	22.07	30.97	-0.06	7.51
49.696	21.62	30.52	-0.06	7.51
49.728	21.62	30.52	0.04	7.62
49.760	21.62	30.52	0.04	7.62
49.792	22.19	31.09	0.04	7.62
49.824	22.19	31.09	-0.04	7.54
49.856	22.19	31.09	-0.04	7.54
49.888	21.48	30.38	-0.04	7.54
49.920	21.48	30.38	-0.01	7.56
49.952	21.48	30.38	-0.01	7.56
49.984	21.93	30.83	-0.01	7.56
50.016	21.93	30.83	0.04	7.62
50.048	21.93	30.83	0.04	7.62
50.080	22.23	31.13	0.04	7.62
50.112	22.23	31.13	-0.06	7.52
50.144	22.23	31.13	-0.06	7.52
50.176	21.79	30.69	-0.06	7.52
50.208	21.79	30.69	0.04	7.62
50.240	21.79	30.69	0.04	7.62
50.272	22.02	30.92	0.04	7.62
50.304	22.02	30.92	-0.04	7.54
50.336	22.02	30.92	-0.04	7.54
50.368	20.42	29.32	-0.04	7.54
50.400	20.42	29.32	-0.01	7.56
50.432	20.42	29.32	-0.01	7.56
50.464	20.43	29.33	-0.01	7.56
50.496	20.43	29.33	0.04	7.62
50.528	20.43	29.33	0.04	7.62
50.560	20.18	29.08	0.04	7.62
50.592	20.18	29.08	-0.06	7.52
50.624	20.18	29.08	-0.06	7.52
50.656	20.45	29.35	-0.06	7.52
50.688	20.45	29.35	0.04	7.62
50.720	20.45	29.35	0.04	7.62
50.752	20.31	29.22	0.04	7.62
50.784	20.31	29.22	-0.03	7.54
50.816	20.31	29.22	-0.03	7.54
50.848	20.07	28.97	-0.03	7.54
50.880	20.07	28.97	-0.01	7.57
50.912	20.07	28.97	-0.01	7.57
50.944	20.76	29.67	-0.01	7.57
50.976	20.76	29.67	0.04	7.62
51.008	20.76	29.67	0.04	7.62
51.040	20.79	29.69	0.04	7.62
51.072	20.79	29.69	-0.06	7.51
51.104	20.79	29.69	-0.06	7.51
51.136	21.70	30.60	-0.06	7.51
51.168	21.70	30.60	0.04	7.62
51.200	21.70	30.60	0.04	7.62
51.232	20.86	29.76	0.04	7.62
51.264	20.86	29.76	-0.04	7.54
51.296	20.86	29.76	-0.04	7.54
51.328	20.35	29.25	-0.04	7.54
51.360	20.35	29.25	-0.01	7.56
51.392	20.35	29.25	-0.01	7.56
51.424	20.80	29.70	-0.01	7.56
51.456	20.80	29.70	0.04	7.62
51.488	20.80	29.70	0.04	7.62
51.520	20.46	29.37	0.04	7.62
51.552	20.46	29.37	-0.06	7.52
51.584	20.46	29.37	-0.06	7.52
51.616	20.13	29.03	-0.06	7.52
51.648	20.13	29.03	0.04	7.62
51.680	20.13	29.03	0.04	7.62
51.712	20.09	28.99	0.04	7.62
51.744	20.09	28.99	-0.04	7.54
51.776	20.09	28.99	-0.04	7.54
51.808	19.79	28.69	-0.04	7.54
51.840	19.79	28.69	-0.02	7.55
51.872	19.79	28.69	-0.02	7.55
51.904	20.33	29.23	-0.02	7.55
51.936	20.33	29.23	0.04	7.62
51.968	20.33	29.23	0.04	7.62
52.000	20.56	29.46	0.04	7.62
52.032	20.56	29.46	-0.06	7.52
52.064	20.56	29.46	-0.06	7.52
52.096	21.00	29.90	-0.06	7.52
52.128	21.00	29.90	0.04	7.62
52.160	21.00	29.90	0.04	7.62
52.192	20.81	29.71	0.04	7.62
52.224	20.81	29.71	-0.04	7.54
52.256	20.81	29.71	-0.04	7.54
52.288	20.51	29.41	-0.04	7.54
52.320	20.51	29.41	-0.01	7.56
52.352	20.51	29.41	-0.01	7.56
52.384	19.99	28.89	-0.01	7.56
52.416	19.99	28.89	0.04	7.62
52.448	19.99	28.89	0.04	7.62
52.480	20.25	29.15	0.04	7.62
52.512	20.25	29.15	-0.06	7.52
52.544	20.25	29.15	-0.06	7.52
52.576	20.02	28.92	-0.06	7.52
52.608	20.02	28.92	0.04	7.62
52.640	20.02	28.92	0.04	7.62
52.672	20.08	28.98	0.04	7.62
52.704	20.08	28.98	-0.03	7.54
52.736	20.08	28.98	-0.03	7.54
52.768	20.10	29.00	-0.03	7.54
52.800	20.10	29.00	-0.02	7.56
52.832	20.10	29.00	-0.02	7.56
52.864	19.85	28.75	-0.02	7.56
52.896	19.85	28.75	0.05	7.62
52.928	19.85	28.75	0.05	7.62
52.960	19.91	28.81	0.05	7.62
52.992	19.91	28.81	-0.06	7.51
53.024	19.91	28.81	-0.06	7.51
53.056	20.56	29.46	-0.06	7.51
53.088	20.56	29.46	0.04	7.62
53.120	20.56	29.46	0.04	7.62
53.152	20.94	29.84	0.04	7.62
53.184	20.94	29.84	-0.04	7.54
53.216	20.94	29.84	-0.04	7.54
53.248	20.28	29.18	-0.04	7.54
53.280	20.28	29.18	-0.02	7.56
53.312	20.28	29.18	-0.02	7.56
53.344	20.07	28.97	-0.02	7.56
53.376	20.07	28.97	0.05	7.62
53.408	20.07	28.97	0.05	7.62
53.440	20.57	29.47	0.05	7.62
53.472	20.57	29.47	-0.06	7.51
53.504	20.57	29.47	-0.06	7.51
53.536	20.09	28.99	-0.06	7.51
53.568	20.09	28.99	0.04	7.62
53.600	20.09	28.99	0.04	7.62
53.632	20.70	29.60	0.04	7.62
53.664	20.70	29.60	-0.04	7.54
53.696	20.70	29.60	-0.04	7.54
53.728	21.29	30.19	-0.04	7.54
53.760	21.29	30.19	-0.02	7.55
53.792	21.29	30.19	-0.02	7.55
53.824	21.47	30.37	-0.02	7.55
53.856	21.47	30.37	0.04	7.62
53.888	21.47	30.37	0.04	7.62
53.920	21.08	29.98	0.04	7.62
53.952	21.08	29.98	-0.06	7.52
53.984	21.08	29.98	-0.06	7.52
54.016	21.20	30.10	-0.06	7.52
54.048	21.20	30.10	0.04	7.62
54.080	21.20	30.10	0.04	7.62
54.112	20.72	29.62	0.04	7.62
54.144	20.72	29.62	-0.04	7.54
54.176	20.72	29.62	-0.04	7.54
54.208	21.06	29.96	-0.04	7.54
54.240	21.06	29.96	-0.02	7.56
54.272	21.06	29.96	-0.02	7.56
54.304	21.71	30.62	-0.02	7.56
54.336	21.71	30.62	0.05	7.62
54.368	21.71	30.62	0.05	7.62
54.400	21.47	30.37	0.05	7.62
54.432	21.47	30.37	-0.06	7.51
54.464	21.47	30.37	-0.06	7.51
54.496	20.89	29.79	-0.06	7.51
54.528	20.89	29.79	0.04	7.61
54.560	20.89	29.79	0.04	7.61
54.592	20.90	29.80	0.04	7.61
54.624	20.90	29.80	-0.04	7.54
54.656	20.90	29.80	-0.04	7.54
54.688	21.32	30.23	-0.04	7.54
54.720	21.32	30.23	-0.02	7.56
54.752	21.32	30.23	-0.02	7.56
54.784	21.29	30.19	-0.02	7.56
54.816	21.29	30.19	0.04	7.62
54.848	21.29	30.19	0.04	7.62
54.880	21.13	30.03	0.04	7.62
54.912	21.13	30.03	-0.06	7.51
54.944	21.13	30.03	-0.06	7.51
54.976	20.74	29.64	-0.06	7.51
55.008	20.74	29.64	0.04	7.61
55.040	20.74	29.64	0.04	7.61
55.072	21.64	30.54	0.04	7.61
55.104	21.64	30.54	-0.03	7.54
55.136	21.64	30.54	-0.03	7.54
55.168	21.37	30.28	-0.03	7.54
55.200	21.37	30.28	-0.02	7.56
55.232	21.37	30.28	-0.02	7.56
55.264	20.75	29.65	-0.02	7.56
55.296	20.75	29.65	0.04	7.62
55.328	20.75	29.65	0.04	7.62
55.360	20.29	29.19	0.04	7.62
55.392	20.29	29.19	-0.06	7.52
55.424	20.29	29.19	-0.06	7.52
55.456	19.78	28.68	-0.06	7.52
55.488	19.78	28.68	0.04	7.62
55.520	19.78	28.68	0.04	7.62
55.552	18.77	27.67	0.04	7.62
55.584	18.77	27.67	-0.03	7.54
55.616	18.77	27.67	-0.03	7.54
55.648	19.26	28.17	-0.03	7.54
55.680	19.26	28.17	-0.02	7.56
55.712	19.26	28.17	-0.02	7.56
55.744	19.37	28.27	-0.02	7.56
55.776	19.37	28.27	0.04	7.62
55.808	19.37	28.27	0.04	7.62
55.840	19.07	27.97	0.04	7.62
55.872	19.07	27.97	-0.06	7.52
55.904	19.07	27.97	-0.06	7.52
55.936	18.95	27.85	-0.06	7.52
55.968	18.95	27.85	0.04	7.61
56.000	18.95	27.85	0.04	7.61
56.032	19.39	28.29	0.04	7.61
56.064	19.39	28.29	-0.03	7.54
56.096	19.39	28.29	-0.03	7.54
56.128	19.45	28.35	-0.03	7.54
56.160	19.45	28.35	-0.02	7.56
56.192	19.45	28.35	-0.02	7.56
56.224	19.62	28.53	-0.02	7.56
56.256	19.62	28.53	0.04	7.62
56.288	19.62	28.53	0.04	7.62
56.320	18.85	27.75	0.04	7.62
56.352	18.85	27.75	-0.06	7.52
56.384	18.85	27.75	-0.06	7.52
56.416	19.00	27.90	-0.06	7.52
56.448	19.00	27.90	0.04	7.62
56.480	19.00	27.90	0.04	7.62
56.512	19.22	28.12	0.04	7.62
56.544	19.22	28.12	-0.04	7.54
56.576	19.22	28.12	-0.04	7.54
56.608	18.80	27.70	-0.04	7.54
56.640	18.80	27.70	-0.02	7.55
56.672	18.80	27.70	-0.02	7.55
56.704	18.47	27.37	-0.02	7.55
56.736	18.47	27.37	0.04	7.62
56.768	18.47	27.37	0.04	7.62
56.800	18.14	27.04	0.04	7.62
56.832	18.14	27.04	-0.06	7.52
56.864	18.14	27.04	-0.06	7.52
56.896	18.57	27.47	-0.06	7.52
56.928	18.57	27.47	0.04	7.62
56.960	18.57	27.47	0.04	7.62
56.992	18.21	27.11	0.04	7.62
57.024	18.21	27.11	-0.03	7.54
57.056	18.21	27.11	-0.03	7.54
57.088	18.56	27.46	-0.03	7.54
57.120	18.56	27.46	-0.02	7.55
57.152	18.56	27.46	-0.02	7.55
57.184	19.25	28.15	-0.02	7.55
57.216	19.25	28.15	0.04	7.62
57.248	19.25	28.15	0.04	7.62
57.280	19.11	28.02	0.04	7.62
57.312	19.11	28.02	-0.06	7.52
57.344	19.11	28.02	-0.06	7.52
57.376	19.18	28.08	-0.06	7.52
57.408	19.18	28.08	0.04	7.62
57.440	19.18	28.08	0.04	7.62
57.472	18.39	27.29	0.04	7.62
57.504	18.39	27.29	-0.03	7.55
57.536	18.39	27.29	-0.03	7.55
57.568	18.36	27.27	-0.03	7.55
57.600	18.36	27.27	-0.03	7.55
57.632	18.36	27.27	-0.03	7.55
57.664	18.59	27.49	-0.03	7.55
57.696	18.59	27.49	0.04	7.62
57.728	18.59	27.49	0.04	7.62
57.760	17.93	26.83	0.04	7.62
57.792	17.93	26.83	-0.06	7.52
57.824	17.93	26.83	-0.06	7.52
57.856	17.60	26.50	-0.06	7.52
57.888	17.60	26.50	0.04	7.61
57.920	17.60	26.50	0.04	7.61
57.952	17.69	26.59	0.04	7.61
57.984	17.69	26.59	-0.03	7.55
58.016	17.69	26.59	-0.03	7.55
58.048	20.98	29.88	-0.03	7.55
58.080	20.98	29.88	-0.03	7.55
58.112	20.98	29.88	-0.03	7.55
58.144	18.73	27.63	-0.03	7.55
58.176	18.73	27.63	0.04	7.62
58.208	18.73	27.63	0.04	7.62
58.240	18.57	27.47	0.04	7.62
58.272	18.57	27.47	-0.06	7.52
58.304	18.57	27.47	-0.06	7.52
58.336	18.00	26.90	-0.06	7.52
58.368	18.00	26.90	0.04	7.61
58.400	18.00	26.90	0.04	7.61
58.432	17.17	26.07	0.04	7.61
58.464	17.17	26.07	-0.03	7.54
58.496	17.17	26.07	-0.03	7.54
58.528	17.62	26.52	-0.03	7.54
58.560	17.62	26.52	-0.03	7.55
58.592	17.62	26.52	-0.03	7.55
58.624	17.50	26.40	-0.03	7.55
58.656	17.50	26.40	0.05	7.63
58.688	17.50	26.40	0.05	7.63
58.720	17.38	26.28	0.05	7.63
58.752	17.38	26.28	-0.06	7.52
58.784	17.38	26.28	-0.06	7.52
58.816	17.36	26.27	-0.06	7.52
58.848	17.36	26.27	0.04	7.61
58.880	17.36	26.27	0.04	7.61
58.912	17.04	25.94	0.04	7.61
58.944	17.04	25.94	-0.03	7.54
58.976	17.04	25.94	-0.03	7.54
59.008	17.41	26.32	-0.03	7.54
59.040	17.41	26.32	-0.03	7.55
59.072	17.41	26.32	-0.03	7.55
59.104	17.59	26.49	-0.03	7.55
59.136	17.59	26.49	0.04	7.62
59.168	17.59	26.49	0.04	7.62
59.200	17.63	26.53	0.04	7.62
59.232	17.63	26.53	-0.05	7.52
59.264	17.63	26.53	-0.05	7.52
59.296	19.08	27.98	-0.05	7.52
59.328	19.08	27.98	0.04	7.61
59.360	19.08	27.98	0.04	7.61
59.392	17.95	26.85	0.04	7.61
59.424	17.95	26.85	-0.03	7.55
59.456	17.95	26.85	-0.03	7.55
59.488	17.20	26.10	-0.03	7.55
59.520	17.20	26.10	-0.03	7.54
59.552	17.20	26.10	-0.03	7.54
59.584	18.23	27.13	-0.03	7.54
59.616	18.23	27.13	0.05	7.62
59.648	18.23	27.13	0.05	7.62
59.680	18.29	27.19	0.05	7.62
59.712	18.29	27.19	-0.06	7.52
59.744	18.29	27.19	-0.06	7.52
59.776	17.80	26.70	-0.06	7.52
59.808	17.80	26.70	0.04	7.61
59.840	17.80	26.70	0.04	7.61
59.872	17.72	26.62	0.04	7.61
59.904	17.72	26.62	-0.03	7.55
59.936	17.72	26.62	-0.03	7.55
59.968	17.96	26.87	-0.03	7.55
60.000	17.96	26.87	-0.03	7.54
60.032	17.96	26.87	-0.03	7.54
60.064	17.66	26.57	-0.03	7.54
60.096	17.66	26.57	0.04	7.62
60.128	17.66	26.57	0.04	7.62
60.160	17.58	26.48	0.04	7.62
60.192	17.58	26.48	-0.06	7.52
60.224	17.58	26.48	-0.06	7.52
60.256	17.55	26.45	-0.06	7.52
60.288	17.55	26.45	0.03	7.61
60.320	17.55	26.45	0.03	7.61
60.352	16.96	25.86	0.03	7.61
60.384	16.96	25.86	-0.03	7.55
60.416	16.96	25.86	-0.03	7.55
60.448	16.47	25.37	-0.03	7.55
60.480	16.47	25.37	-0.03	7.54
60.512	16.47	25.37	-0.03	7.54
60.544	16.24	25.14	-0.03	7.54
60.576	16.24	25.14	0.04	7.62
60.608	16.24	25.14	0.04	7.62
60.640	16.43	25.33	0.04	7.62
60.672	16.43	25.33	-0.06	7.52
60.704	16.43	25.33	-0.06	7.52
60.736	15.93	24.83	-0.06	7.52
60.768	15.93	24.83	0.03	7.61
60.800	15.93	24.83	0.03	7.61
60.832	16.35	25.25	0.03	7.61
60.864	16.35	25.25	-0.03	7.55
60.896	16.35	25.25	-0.03	7.55
60.928	16.19	25.09	-0.03	7.55
60.960	16.19	25.09	-0.04	7.54
60.992	16.19	25.09	-0.04	7.54
61.024	17.24	26.14	-0.04	7.54
61.056	17.24	26.14	0.04	7.62
61.088	17.24	26.14	0.04	7.62
61.120	17.81	26.71	0.04	7.62
61.152	17.81	26.71	-0.06	7.52
61.184	17.81	26.71	-0.06	7.52
61.216	18.16	27.06	-0.06	7.52
61.248	18.16	27.06	0.03	7.61
61.280	18.16	27.06	0.03	7.61
61.312	17.91	26.81	0.03	7.61
61.344	17.91	26.81	-0.03	7.55
61.376	17.91	26.81	-0.03	7.55
61.408	18.07	26.98	-0.03	7.55
61.440	18.07	26.98	-0.04	7.54
61.472	18.07	26.98	-0.04	7.54
61.504	17.58	26.48	-0.04	7.54
61.536	17.58	26.48	0.05	7.62
61.568	17.58	26.48	0.05	7.62
61.600	18.32	27.22	0.05	7.62
61.632	18.32	27.22	-0.06	7.52
61.664	18.32	27.22	-0.06	7.52
61.696	17.97	26.87	-0.06	7.52
61.728	17.97	26.87	0.03	7.61
61.760	17.97	26.87	0.03	7.61
61.792	18.13	27.03	0.03	7.61
61.824	18.13	27.03	-0.03	7.55
61.856	18.13	27.03	-0.03	7.55
61.888	18.96	27.86	-0.03	7.55
61.920	18.96	27.86	-0.04	7.54
61.952	18.96	27.86	-0.04	7.54
61.984	19.08	27.98	-0.04	7.54
62.016	19.08	27.98	0.05	7.62
62.048	19.08	27.98	0.05	7.62
62.080	19.30	28.20	0.05	7.62
62.112	19.30	28.20	-0.06	7.52
62.144	19.30	28.20	-0.06	7.52
62.176	19.64	28.54	-0.06	7.52
62.208	19.64	28.54	0.04	7.61
62.240	19.64	28.54	0.04	7.61
62.272	19.68	28.58	0.04	7.61
62.304	19.68	28.58	-0.02	7.55
62.336	19.68	28.58	-0.02	7.55
62.368	19.40	28.30	-0.02	7.55
62.400	19.40	28.30	-0.04	7.54
62.432	19.40	28.30	-0.04	7.54
62.464	18.87	27.77	-0.04	7.54
62.496	18.87	27.77	0.05	7.62
62.528	18.87	27.77	0.05	7.62
62.560	19.12	28.02	0.05	7.62
62.592	19.12	28.02	-0.05	7.52
62.624	19.12	28.02	-0.05	7.52
62.656	18.92	27.82	-0.05	7.52
62.688	18.92	27.82	0.03	7.61
62.720	18.92	27.82	0.03	7.61
62.752	18.65	27.55	0.03	7.61
62.784	18.65	27.55	-0.02	7.55
62.816	18.65	27.55	-0.02	7.55
62.848	18.73	27.63	-0.02	7.55
62.880	18.73	27.63	-0.04	7.53
62.912	18.73	27.63	-0.04	7.53
62.944	19.06	27.96	-0.04	7.53
62.976	19.06	27.96	0.05	7.62
63.008	19.06	27.96	0.05	7.62
63.040	18.37	27.27	0.05	7.62
63.072	18.37	27.27	-0.06	7.52
63.104	18.37	27.27	-0.06	7.52
63.136	19.15	28.05	-0.06	7.52
63.168	19.15	28.05	0.03	7.61
63.200	19.15	28.05	0.03	7.61
63.232	19.44	28.34	0.03	7.61
63.264	19.44	28.34	-0.02	7.56
63.296	19.44	28.34	-0.02	7.56
63.328	19.62	28.52	-0.02	7.56
63.360	19.62	28.52	-0.04	7.53
63.392	19.62	28.52	-0.04	7.53
63.424	18.65	27.55	-0.04	7.53
63.456	18.65	27.55	0.05	7.63
63.488	18.65	27.55	0.05	7.63
63.520	18.52	27.42	0.05	7.63
63.552	18.52	27.42	-0.06	7.52
63.584	18.52	27.42	-0.06	7.52
63.616	18.50	27.40	-0.06	7.52
63.648	18.50	27.40	0.04	7.61
63.680	18.50	27.40	0.04	7.61
63.712	18.97	27.88	0.04	7.61
63.744	18.97	27.88	-0.02	7.56
63.776	18.97	27.88	-0.02	7.56
63.808	18.55	27.45	-0.02	7.56
63.840	18.55	27.45	-0.04	7.54
63.872	18.55	27.45	-0.04	7.54
63.904	19.77	28.67	-0.04	7.54
63.936	19.77	28.67	0.05	7.63
63.968	19.77	28.67	0.05	7.63
64.000	18.48	27.38	0.05	7.63
64.032	18.48	27.38	-0.06	7.52
64.064	18.48	27.38	-0.06	7.52
64.096	20.41	29.31	-0.06	7.52
64.128	20.41	29.31	0.03	7.61
64.160	20.41	29.31	0.03	7.61
64.192	18.87	27.78	0.03	7.61
64.224	18.87	27.78	-0.02	7.56
64.256	18.87	27.78	-0.02	7.56
64.288	18.30	27.20	-0.02	7.56
64.320	18.30	27.20	-0.04	7.53
64.352	18.30	27.20	-0.04	7.53
64.384	18.32	27.22	-0.04	7.53
64.416	18.32	27.22	0.05	7.62
64.448	18.32	27.22	0.05	7.62
64.480	18.00	26.90	0.05	7.62
64.512	18.00	26.90	-0.05	7.52
64.544	18.00	26.90	-0.05	7.52
64.576	17.13	26.03	-0.05	7.52
64.608	17.13	26.03	0.03	7.61
64.640	17.13	26.03	0.03	7.61
64.672	17.25	26.15	0.03	7.61
64.704	17.25	26.15	-0.01	7.56
64.736	17.25	26.15	-0.01	7.56
64.768	17.94	26.84	-0.01	7.56
64.800	17.94	26.84	-0.04	7.53
64.832	17.94	26.84	-0.04	7.53
64.864	16.53	25.43	-0.04	7.53
64.896	16.53	25.43	0.05	7.62
64.928	16.53	25.43	0.05	7.62
64.960	18.31	27.21	0.05	7.62
64.992	18.31	27.21	-0.06	7.52
65.024	18.31	27.21	-0.06	7.52
65.056	17.09	25.99	-0.06	7.52
65.088	17.09	25.99	0.03	7.61
65.120	17.09	25.99	0.03	7.61
65.152	16.84	25.74	0.03	7.61
65.184	16.84	25.74	-0.01	7.56
65.216	16.84	25.74	-0.01	7.56
65.248	16.38	25.28	-0.01	7.56
65.280	16.38	25.28	-0.05	7.53
65.312	16.38	25.28	-0.05	7.53
65.344	17.23	26.13	-0.05	7.53
65.376	17.23	26.13	0.05	7.62
65.408	17.23	26.13	0.05	7.62
65.440	16.73	25.63	0.05	7.62
65.472	16.73	25.63	-0.05	7.52
65.504	16.73	25.63	-0.05	7.52
65.536	16.62	25.52	-0.05	7.52
65.568	16.62	25.52	0.03	7.61
65.600	16.62	25.52	0.03	7.61
65.632	18.64	27.54	0.03	7.61
65.664	18.64	27.54	-0.01	7.56
65.696	18.64	27.54	-0.01	7.56
65.728	18.27	27.17	-0.01	7.56
65.760	18.27	27.17	-0.05	7.53
65.792	18.27	27.17	-0.05	7.53
65.824	16.92	25.82	-0.05	7.53
65.856	16.92	25.82	0.05	7.62
65.888	16.92	25.82	0.05	7.62
65.920	15.59	24.49	0.05	7.62
65.952	15.59	24.49	-0.05	7.53
65.984	15.59	24.49	-0.05	7.53
66.016	18.04	26.94	-0.05	7.53
66.048	18.04	26.94	0.03	7.61
66.080	18.04	26.94	0.03	7.61
66.112	19.81	28.71	0.03	7.61
66.144	19.81	28.71	-0.01	7.56
66.176	19.81	28.71	-0.01	7.56
66.208	19.89	28.79	-0.01	7.56
66.240	19.89	28.79	-0.05	7.53
66.272	19.89	28.79	-0.05	7.53
66.304	18.30	27.20	-0.05	7.53
66.336	18.30	27.20	0.05	7.63
66.368	18.30	27.20	0.05	7.63
66.400	14.22	23.12	0.05	7.63
66.432	14.22	23.12	-0.06	7.52
66.464	14.22	23.12	-0.06	7.52
66.496	14.39	23.29	-0.06	7.52
66.528	14.39	23.29	0.03	7.61
66.560	14.39	23.29	0.03	7.61
66.592	14.92	23.82	0.03	7.61
66.624	14.92	23.82	-0.01	7.57
66.656	14.92	23.82	-0.01	7.57
66.688	20.39	29.29	-0.01	7.57
66.720	20.39	29.29	-0.04	7.53
66.752	20.39	29.29	-0.04	7.53
66.784	17.82	26.72	-0.04	7.53
66.816	17.82	26.72	0.05	7.63
66.848	17.82	26.72	0.05	7.63
66.880	16.28	25.18	0.05	7.63
66.912	16.28	25.18	-0.05	7.52
66.944	16.28	25.18	-0.05	7.52
66.976	16.25	25.15	-0.05	7.52
67.008	16.25	25.15	0.03	7.61
67.040	16.25	25.15	0.03	7.61
67.072	16.29	25.19	0.03	7.61
67.104	16.29	25.19	-0.01	7.57
67.136	16.29	25.19	-0.01	7.57
67.168	15.32	24.22	-0.01	7.57
67.200	15.32	24.22	-0.04	7.53
67.232	15.32	24.22	-0.04	7.53
67.264	14.62	23.52	-0.04	7.53
67.296	14.62	23.52	0.05	7.63
67.328	14.62	23.52	0.05	7.63
67.360	13.85	22.75	0.05	7.63
67.392	13.85	22.75	-0.05	7.53
67.424	13.85	22.75	-0.05	7.53
67.456	13.99	22.89	-0.05	7.53
67.488	13.99	22.89	0.03	7.61
67.520	13.99	22.89	0.03	7.61
67.552	13.47	22.37	0.03	7.61
67.584	13.47	22.37	-0.01	7.57
67.616	13.47	22.37	-0.01	7.57
67.648	14.20	23.10	-0.01	7.57
67.680	14.20	23.10	-0.05	7.53
67.712	14.20	23.10	-0.05	7.53
67.744	14.47	23.37	-0.05	7.53
67.776	14.47	23.37	0.05	7.62
67.808	14.47	23.37	0.05	7.62
67.840	15.19	24.09	0.05	7.62
67.872	15.19	24.09	-0.05	7.53
67.904	15.19	24.09	-0.05	7.53
67.936	14.35	23.25	-0.05	7.53
67.968	14.35	23.25	0.03	7.60
68.000	14.35	23.25	0.03	7.60
68.032	14.56	23.46	0.03	7.60
68.064	14.56	23.46	-0.01	7.57
68.096	14.56	23.46	-0.01	7.57
68.128	15.06	23.96	-0.01	7.57
68.160	15.06	23.96	-0.05	7.53
68.192	15.06	23.96	-0.05	7.53
68.224	14.86	23.76	-0.05	7.53
68.256	14.86	23.76	0.05	7.63
68.288	14.86	23.76	0.05	7.63
68.320	15.73	24.63	0.05	7.63
68.352	15.73	24.63	-0.05	7.52
68.384	15.73	24.63	-0.05	7.52
68.416	15.31	24.21	-0.05	7.52
68.448	15.31	24.21	0.03	7.61
68.480	15.31	24.21	0.03	7.61
68.512	16.14	25.04	0.03	7.61
68.544	16.14	25.04	-0.01	7.57
68.576	16.14	25.04	-0.01	7.57
68.608	17.56	26.46	-0.01	7.57
68.640	17.56	26.46	-0.05	7.53
68.672	17.56	26.46	-0.05	7.53
68.704	17.24	26.14	-0.05	7.53
68.736	17.24	26.14	0.05	7.63
68.768	17.24	26.14	0.05	7.63
68.800	15.76	24.66	0.05	7.63
68.832	15.76	24.66	-0.05	7.53
68.864	15.76	24.66	-0.05	7.53
68.896	17.30	26.20	-0.05	7.53
68.928	17.30	26.20	0.03	7.61
68.960	17.30	26.20	0.03	7.61
68.992	17.10	26.00	0.03	7.61
69.024	17.10	26.00	-0.01	7.57
69.056	17.10	26.00	-0.01	7.57
69.088	16.57	25.47	-0.01	7.57
69.120	16.57	25.47	-0.05	7.53
69.152	16.57	25.47	-0.05	7.53
69.184	16.20	25.10	-0.05	7.53
69.216	16.20	25.10	0.05	7.62
69.248	16.20	25.10	0.05	7.62
69.280	15.89	24.79	0.05	7.62
69.312	15.89	24.79	-0.05	7.52
69.344	15.89	24.79	-0.05	7.52
69.376	14.03	22.93	-0.05	7.52
69.408	14.03	22.93	0.03	7.61
69.440	14.03	22.93	0.03	7.61
69.472	14.11	23.01	0.03	7.61
69.504	14.11	23.01	-0.01	7.56
69.536	14.11	23.01	-0.01	7.56
69.568	14.32	23.22	-0.01	7.56
69.600	14.32	23.22	-0.05	7.53
69.632	14.32	23.22	-0.05	7.53
69.664	12.75	21.65	-0.05	7.53
69.696	12.75	21.65	0.05	7.62
69.728	12.75	21.65	0.05	7.62
69.760	13.35	22.25	0.05	7.62
69.792	13.35	22.25	-0.05	7.52
69.824	13.35	22.25	-0.05	7.52
69.856	12.93	21.83	-0.05	7.52
69.888	12.93	21.83	0.03	7.60
69.920	12.93	21.83	0.03	7.60
69.952	13.12	22.02	0.03	7.60
69.984	13.12	22.02	-0.01	7.56
70.016	13.12	22.02	-0.01	7.56
70.048	13.23	22.13	-0.01	7.56
70.080	13.23	22.13	-0.05	7.53
70.112	13.23	22.13	-0.05	7.53
70.144	13.40	22.30	-0.05	7.53
70.176	13.40	22.30	0.05	7.63
70.208	13.40	22.30	0.05	7.63
70.240	13.34	22.24	0.05	7.63
70.272	13.34	22.24	-0.05	7.52
70.304	13.34	22.24	-0.05	7.52
70.336	13.67	22.57	-0.05	7.52
70.368	13.67	22.57	0.03	7.60
70.400	13.67	22.57	0.03	7.60
70.432	14.08	22.98	0.03	7.60
70.464	14.08	22.98	-0.01	7.56
70.496	14.08	22.98	-0.01	7.56
70.528	14.71	23.62	-0.01	7.56
70.560	14.71	23.62	-0.05	7.53
70.592	14.71	23.62	-0.05	7.53
70.624	15.07	23.97	-0.05	7.53
70.656	15.07	23.97	0.05	7.63
70.688	15.07	23.97	0.05	7.63
70.720	13.50	22.40	0.05	7.63
70.752	13.50	22.40	-0.05	7.53
70.784	13.50	22.40	-0.05	7.53
70.816	14.27	23.17	-0.05	7.53
70.848	14.27	23.17	0.03	7.60
70.880	14.27	23.17	0.03	7.60
70.912	13.18	22.08	0.03	7.60
70.944	13.18	22.08	-0.01	7.57
70.976	13.18	22.08	-0.01	7.57
71.008	12.10	21.00	-0.01	7.57
71.040	12.10	21.00	-0.05	7.53
71.072	12.10	21.00	-0.05	7.53
71.104	12.97	21.87	-0.05	7.53
71.136	12.97	21.87	0.05	7.63
71.168	12.97	21.87	0.05	7.63
71.200	12.66	21.56	0.05	7.63
71.232	12.66	21.56	-0.05	7.52
71.264	12.66	21.56	-0.05	7.52
71.296	12.90	21.80	-0.05	7.52
71.328	12.90	21.80	0.03	7.61
71.360	12.90	21.80	0.03	7.61
71.392	12.38	21.28	0.03	7.61
71.424	12.38	21.28	-0.01	7.57
71.456	12.38	21.28	-0.01	7.57
71.488	11.89	20.79	-0.01	7.57
71.520	11.89	20.79	-0.05	7.53
71.552	11.89	20.79	-0.05	7.53
71.584	13.22	22.12	-0.05	7.53
71.616	13.22	22.12	0.05	7.63
71.648	13.22	22.12	0.05	7.63
71.680	12.65	21.55	0.05	7.63
71.712	12.65	21.55	-0.05	7.53
71.744	12.65	21.55	-0.05	7.53
71.776	12.19	21.09	-0.05	7.53
71.808	12.19	21.09	0.03	7.60
71.840	12.19	21.09	0.03	7.60
71.872	12.62	21.53	0.03	7.60
71.904	12.62	21.53	-0.01	7.56
71.936	12.62	21.53	-0.01	7.56
71.968	12.72	21.62	-0.01	7.56
72.000	12.72	21.62	-0.05	7.53
72.032	12.72	21.62	-0.05	7.53
72.064	13.13	22.03	-0.05	7.53
72.096	13.13	22.03	0.05	7.63
72.128	13.13	22.03	0.05	7.63
72.160	13.12	22.03	0.05	7.63
72.192	13.12	22.03	-0.05	7.53
72.224	13.12	22.03	-0.05	7.53
72.256	13.15	22.05	-0.05	7.53
72.288	13.15	22.05	0.03	7.61
72.320	13.15	22.05	0.03	7.61
72.352	12.38	21.28	0.03	7.61
72.384	12.38	21.28	-0.01	7.57
72.416	12.38	21.28	-0.01	7.57
72.448	11.56	20.46	-0.01	7.57
72.480	11.56	20.46	-0.05	7.53
72.512	11.56	20.46	-0.05	7.53
72.544	12.62	21.52	-0.05	7.53
72.576	12.62	21.52	0.05	7.63
72.608	12.62	21.52	0.05	7.63
72.640	11.53	20.43	0.05	7.63
72.672	11.53	20.43	-0.05	7.53
72.704	11.53	20.43	-0.05	7.53
72.736	12.29	21.19	-0.05	7.53
72.768	12.29	21.19	0.03	7.61
72.800	12.29	21.19	0.03	7.61
72.832	12.50	21.40	0.03	7.61
72.864	12.50	21.40	-0.01	7.57
72.896	12.50	21.40	-0.01	7.57
72.928	11.95	20.85	-0.01	7.57
72.960	11.95	20.85	-0.05	7.53
72.992	11.95	20.85	-0.05	7.53
73.024	12.46	21.36	-0.05	7.53
73.056	12.46	21.36	0.05	7.62
73.088	12.46	21.36	0.05	7.62
73.120	11.61	20.51	0.05	7.62
73.152	11.61	20.51	-0.05	7.52
73.184	11.61	20.51	-0.05	7.52
73.216	12.79	21.69	-0.05	7.52
73.248	12.79	21.69	0.03	7.60
73.280	12.79	21.69	0.03	7.60
73.312	13.01	21.91	0.03	7.60
73.344	13.01	21.91	-0.01	7.57
73.376	13.01	21.91	-0.01	7.57
73.408	12.40	21.30	-0.01	7.57
73.440	12.40	21.30	-0.05	7.53
73.472	12.40	21.30	-0.05	7.53
73.504	12.68	21.58	-0.05	7.53
73.536	12.68	21.58	0.05	7.63
73.568	12.68	21.58	0.05	7.63
73.600	12.86	21.76	0.05	7.63
73.632	12.86	21.76	-0.05	7.53
73.664	12.86	21.76	-0.05	7.53
73.696	11.73	20.63	-0.05	7.53
73.728	11.73	20.63	0.03	7.61
73.760	11.73	20.63	0.03	7.61
73.792	11.80	20.70	0.03	7.61
73.824	11.80	20.70	-0.01	7.57
73.856	11.80	20.70	-0.01	7.57
73.888	12.71	21.61	-0.01	7.57
73.920	12.71	21.61	-0.05	7.53
73.952	12.71	21.61	-0.05	7.53
73.984	12.30	21.20	-0.05	7.53
74.016	12.30	21.20	0.05	7.63
74.048	12.30	21.20	0.05	7.63
74.080	12.88	21.78	0.05	7.63
74.112	12.88	21.78	-0.05	7.53
74.144	12.88	21.78	-0.05	7.53
74.176	13.57	22.47	-0.05	7.53
74.208	13.57	22.47	0.03	7.60
74.240	13.57	22.47	0.03	7.60
74.272	14.13	23.03	0.03	7.60
74.304	14.13	23.03	-0.01	7.57
74.336	14.13	23.03	-0.01	7.57
74.368	12.98	21.88	-0.01	7.57
74.400	12.98	21.88	-0.05	7.53
74.432	12.98	21.88	-0.05	7.53
74.464	13.02	21.92	-0.05	7.53
74.496	13.02	21.92	0.05	7.63
74.528	13.02	21.92	0.05	7.63
74.560	12.99	21.89	0.05	7.63
74.592	12.99	21.89	-0.05	7.53
74.624	12.99	21.89	-0.05	7.53
74.656	14.08	22.98	-0.05	7.53
74.688	14.08	22.98	0.03	7.60
74.720	14.08	22.98	0.03	7.60
74.752	14.19	23.09	0.03	7.60
74.784	14.19	23.09	-0.01	7.57
74.816	14.19	23.09	-0.01	7.57
74.848	13.50	22.40	-0.01	7.57
74.880	13.50	22.40	-0.05	7.53
74.912	13.50	22.40	-0.05	7.53
74.944	12.93	21.83	-0.05	7.53
74.976	12.93	21.83	0.05	7.63
75.008	12.93	21.83	0.05	7.63
75.040	13.12	22.02	0.05	7.63
75.072	13.12	22.02	-0.05	7.53
75.104	13.12	22.02	-0.05	7.53
75.136	13.34	22.24	-0.05	7.53
75.168	13.34	22.24	0.03	7.60
75.200	13.34	22.24	0.03	7.60
75.232	13.40	22.30	0.03	7.60
75.264	13.40	22.30	-0.01	7.57
75.296	13.40	22.30	-0.01	7.57
75.328	12.90	21.80	-0.01	7.57
75.360	12.90	21.80	-0.05	7.53
75.392	12.90	21.80	-0.05	7.53
75.424	13.15	22.05	-0.05	7.53
75.456	13.15	22.05	0.05	7.63
75.488	13.15	22.05	0.05	7.63
75.520	13.51	22.41	0.05	7.63
75.552	13.51	22.41	-0.05	7.53
75.584	13.51	22.41	-0.05	7.53
75.616	13.21	22.11	-0.05	7.53
75.648	13.21	22.11	0.03	7.61
75.680	13.21	22.11	0.03	7.61
75.712	13.37	22.27	0.03	7.61
75.744	13.37	22.27	-0.00	7.57
75.776	13.37	22.27	-0.00	7.57
75.808	12.17	21.08	-0.00	7.57
75.840	12.17	21.08	-0.05	7.53
75.872	12.17	21.08	-0.05	7.53
75.904	12.73	21.63	-0.05	7.53
75.936	12.73	21.63	0.05	7.63
75.968	12.73	21.63	0.05	7.63
76.000	12.57	21.47	0.05	7.63
76.032	12.57	21.47	-0.05	7.53
76.064	12.57	21.47	-0.05	7.53
76.096	13.79	22.69	-0.05	7.53
76.128	13.79	22.69	0.03	7.60
76.160	13.79	22.69	0.03	7.60
76.192	14.23	23.13	0.03	7.60
76.224	14.23	23.13	-0.00	7.57
76.256	14.23	23.13	-0.00	7.57
76.288	14.03	22.93	-0.00	7.57
76.320	14.03	22.93	-0.05	7.52
76.352	14.03	22.93	-0.05	7.52
76.384	13.70	22.60	-0.05	7.52
76.416	13.70	22.60	0.05	7.63
76.448	13.70	22.60	0.05	7.63
76.480	13.41	22.32	0.05	7.63
76.512	13.41	22.32	-0.05	7.53
76.544	13.41	22.32	-0.05	7.53
76.576	13.59	22.49	-0.05	7.53
76.608	13.59	22.49	0.03	7.61
76.640	13.59	22.49	0.03	7.61
76.672	13.39	22.29	0.03	7.61
76.704	13.39	22.29	-0.00	7.57
76.736	13.39	22.29	-0.00	7.57
76.768	13.96	22.86	-0.00	7.57
76.800	13.96	22.86	-0.05	7.52
76.832	13.96	22.86	-0.05	7.52
76.864	13.97	22.88	-0.05	7.52
76.896	13.97	22.88	0.05	7.63
76.928	13.97	22.88	0.05	7.63
76.960	14.05	22.95	0.05	7.63
76.992	14.05	22.95	-0.05	7.53
77.024	14.05	22.95	-0.05	7.53
77.056	13.76	22.66	-0.05	7.53
77.088	13.76	22.66	0.03	7.61
77.120	13.76	22.66	0.03	7.61
77.152	13.79	22.69	0.03	7.61
77.184	13.79	22.69	-0.00	7.57
77.216	13.79	22.69	-0.00	7.57
77.248	14.46	23.36	-0.00	7.57
77.280	14.46	23.36	-0.05	7.52
77.312	14.46	23.36	-0.05	7.52
77.344	13.59	22.49	-0.05	7.52
77.376	13.59	22.49	0.06	7.63
77.408	13.59	22.49	0.06	7.63
77.440	13.76	22.66	0.06	7.63
77.472	13.76	22.66	-0.05	7.53
77.504	13.76	22.66	-0.05	7.53
77.536	13.97	22.87	-0.05	7.53
77.568	13.97	22.87	0.03	7.60
77.600	13.97	22.87	0.03	7.60
77.632	13.19	22.09	0.03	7.60
77.664	13.19	22.09	-0.00	7.57
77.696	13.19	22.09	-0.00	7.57
77.728	13.08	21.98	-0.00	7.57
77.760	13.08	21.98	-0.05	7.52
77.792	13.08	21.98	-0.05	7.52
77.824	13.86	22.76	-0.05	7.52
77.856	13.86	22.76	0.05	7.63
77.888	13.86	22.76	0.05	7.63
77.920	12.76	21.67	0.05	7.63
77.952	12.76	21.67	-0.05	7.53
77.984	12.76	21.67	-0.05	7.53
78.016	13.06	21.97	-0.05	7.53
78.048	13.06	21.97	0.02	7.60
78.080	13.06	21.97	0.02	7.60
78.112	12.65	21.55	0.02	7.60
78.144	12.65	21.55	-0.00	7.58
78.176	12.65	21.55	-0.00	7.58
78.208	12.92	21.82	-0.00	7.58
78.240	12.92	21.82	-0.05	7.52
78.272	12.92	21.82	-0.05	7.52
78.304	12.47	21.37	-0.05	7.52
78.336	12.47	21.37	0.05	7.63
78.368	12.47	21.37	0.05	7.63
78.400	12.15	21.05	0.05	7.63
78.432	12.15	21.05	-0.04	7.53
78.464	12.15	21.05	-0.04	7.53
78.496	12.33	21.23	-0.04	7.53
78.528	12.33	21.23	0.03	7.60
78.560	12.33	21.23	0.03	7.60
78.592	12.80	21.70	0.03	7.60
78.624	12.80	21.70	0.00	7.58
78.656	12.80	21.70	0.00	7.58
78.688	12.83	21.73	0.00	7.58
78.720	12.83	21.73	-0.05	7.52
78.752	12.83	21.73	-0.05	7.52
78.784	13.25	22.15	-0.05	7.52
78.816	13.25	22.15	0.06	7.63
78.848	13.25	22.15	0.06	7.63
78.880	13.54	22.44	0.06	7.63
78.912	13.54	22.44	-0.05	7.53
78.944	13.54	22.44	-0.05	7.53
78.976	13.00	21.90	-0.05	7.53
79.008	13.00	21.90	0.03	7.60
79.040	13.00	21.90	0.03	7.60
79.072	13.05	21.95	0.03	7.60
79.104	13.05	21.95	0.00	7.58
79.136	13.05	21.95	0.00	7.58
79.168	13.80	22.70	0.00	7.58
79.200	13.80	22.70	-0.05	7.53
79.232	13.80	22.70	-0.05	7.53
79.264	13.98	22.88	-0.05	7.53
79.296	13.98	22.88	0.05	7.63
79.328	13.98	22.88	0.05	7.63
79.360	13.88	22.78	0.05	7.63
79.392	13.88	22.78	-0.04	7.53
79.424	13.88	22.78	-0.04	7.53
79.456	13.88	22.78	-0.04	7.53
79.488	13.88	22.78	0.03	7.60
79.520	13.88	22.78	0.03	7.60
79.552	14.03	22.93	0.03	7.60
79.584	14.03	22.93	-0.00	7.58
79.616	14.03	22.93	-0.00	7.58
79.648	14.64	23.54	-0.00	7.58
79.680	14.64	23.54	-0.05	7.52
79.712	14.64	23.54	-0.05	7.52
79.744	15.35	24.25	-0.05	7.52
79.776	15.35	24.25	0.05	7.63
79.808	15.35	24.25	0.05	7.63
79.840	14.79	23.69	0.05	7.63
79.872	14.79	23.69	-0.05	7.53
79.904	14.79	23.69	-0.05	7.53
79.936	15.06	23.96	-0.05	7.53
79.968	15.06	23.96	0.03	7.60
80.000	15.06	23.96	0.03	7.60
80.032	14.53	23.43	0.03	7.60
80.064	14.53	23.43	0.01	7.58
80.096	14.53	23.43	0.01	7.58
80.128	14.49	23.39	0.01	7.58
80.160	14.49	23.39	-0.05	7.52
80.192	14.49	23.39	-0.05	7.52
80.224	16.70	25.60	-0.05	7.52
80.256	16.70	25.60	0.06	7.63
80.288	16.70	25.60	0.06	7.63
80.320	16.19	25.09	0.06	7.63
80.352	16.19	25.09	-0.05	7.53
80.384	16.19	25.09	-0.05	7.53
80.416	15.80	24.70	-0.05	7.53
80.448	15.80	24.70	0.03	7.60
80.480	15.80	24.70	0.03	7.60
80.512	14.92	23.82	0.03	7.60
80.544	14.92	23.82	0.00	7.58
80.576	14.92	23.82	0.00	7.58
80.608	15.00	23.90	0.00	7.58
80.640	15.00	23.90	-0.05	7.52
80.672	15.00	23.90	-0.05	7.52
80.704	14.67	23.57	-0.05	7.52
80.736	14.67	23.57	0.05	7.63
80.768	14.67	23.57	0.05	7.63
80.800	14.48	23.38	0.05	7.63
80.832	14.48	23.38	-0.04	7.53
80.864	14.48	23.38	-0.04	7.53
80.896	14.86	23.77	-0.04	7.53
80.928	14.86	23.77	0.03	7.60
80.960	14.86	23.77	0.03	7.60
80.992	13.87	22.77	0.03	7.60
81.024	13.87	22.77	0.00	7.58
81.056	13.87	22.77	0.00	7.58
81.088	14.57	23.47	0.00	7.58
81.120	14.57	23.47	-0.05	7.52
81.152	14.57	23.47	-0.05	7.52
81.184	15.28	24.18	-0.05	7.52
81.216	15.28	24.18	0.05	7.63
81.248	15.28	24.18	0.05	7.63
81.280	15.46	24.37	0.05	7.63
81.312	15.46	24.37	-0.04	7.53
81.344	15.46	24.37	-0.04	7.53
81.376	14.74	23.64	-0.04	7.53
81.408	14.74	23.64	0.02	7.60
81.440	14.74	23.64	0.02	7.60
81.472	14.81	23.71	0.02	7.60
81.504	14.81	23.71	-0.00	7.57
81.536	14.81	23.71	-0.00	7.57
81.568	14.44	23.34	-0.00	7.57
81.600	14.44	23.34	-0.05	7.52
81.632	14.44	23.34	-0.05	7.52
81.664	15.92	24.82	-0.05	7.52
81.696	15.92	24.82	0.06	7.63
81.728	15.92	24.82	0.06	7.63
81.760	14.29	23.19	0.06	7.63
81.792	14.29	23.19	-0.05	7.53
81.824	14.29	23.19	-0.05	7.53
81.856	15.67	24.57	-0.05	7.53
81.888	15.67	24.57	0.03	7.60
81.920	15.67	24.57	0.03	7.60
81.952	14.67	23.57	0.03	7.60
81.984	14.67	23.57	0.00	7.58
82.016	14.67	23.57	0.00	7.58
82.048	14.92	23.82	0.00	7.58
82.080	14.92	23.82	-0.05	7.52
82.112	14.92	23.82	-0.05	7.52
82.144	14.41	23.31	-0.05	7.52
82.176	14.41	23.31	0.05	7.63
82.208	14.41	23.31	0.05	7.63
82.240	15.17	24.07	0.05	7.63
82.272	15.17	24.07	-0.05	7.53
82.304	15.17	24.07	-0.05	7.53
82.336	15.44	24.34	-0.05	7.53
82.368	15.44	24.34	0.03	7.60
82.400	15.44	24.34	0.03	7.60
82.432	15.12	24.02	0.03	7.60
82.464	15.12	24.02	-0.00	7.58
82.496	15.12	24.02	-0.00	7.58
82.528	15.92	24.82	-0.00	7.58
82.560	15.92	24.82	-0.05	7.52
82.592	15.92	24.82	-0.05	7.52
82.624	15.90	24.80	-0.05	7.52
82.656	15.90	24.80	0.05	7.63
82.688	15.90	24.80	0.05	7.63
82.720	15.43	24.33	0.05	7.63
82.752	15.43	24.33	-0.04	7.53
82.784	15.43	24.33	-0.04	7.53
82.816	14.41	23.31	-0.04	7.53
82.848	14.41	23.31	0.03	7.60
82.880	14.41	23.31	0.03	7.60
82.912	14.64	23.54	0.03	7.60
82.944	14.64	23.54	-0.00	7.58
82.976	14.64	23.54	-0.00	7.58
83.008	15.33	24.23	-0.00	7.58
83.040	15.33	24.23	-0.05	7.52
83.072	15.33	24.23	-0.05	7.52
83.104	14.87	23.77	-0.05	7.52
83.136	14.87	23.77	0.05	7.63
83.168	14.87	23.77	0.05	7.63
83.200	14.88	23.78	0.05	7.63
83.232	14.88	23.78	-0.05	7.53
83.264	14.88	23.78	-0.05	7.53
83.296	15.68	24.58	-0.05	7.53
83.328	15.68	24.58	0.03	7.60
83.360	15.68	24.58	0.03	7.60
83.392	14.75	23.65	0.03	7.60
83.424	14.75	23.65	-0.00	7.57
83.456	14.75	23.65	-0.00	7.57
83.488	14.24	23.14	-0.00	7.57
83.520	14.24	23.14	-0.05	7.52
83.552	14.24	23.14	-0.05	7.52
83.584	15.87	24.78	-0.05	7.52
83.616	15.87	24.78	0.05	7.63
83.648	15.87	24.78	0.05	7.63
83.680	16.58	25.48	0.05	7.63
83.712	16.58	25.48	-0.05	7.53
83.744	16.58	25.48	-0.05	7.53
83.776	15.60	24.50	-0.05	7.53
83.808	15.60	24.50	0.02	7.60
83.840	15.60	24.50	0.02	7.60
83.872	14.98	23.88	0.02	7.60
83.904	14.98	23.88	0.00	7.58
83.936	14.98	23.88	0.00	7.58
83.968	14.55	23.45	0.00	7.58
84.000	14.55	23.45	-0.05	7.52
84.032	14.55	23.45	-0.05	7.52
84.064	14.50	23.40	-0.05	7.52
84.096	14.50	23.40	0.05	7.63
84.128	14.50	23.40	0.05	7.63
84.160	14.06	22.96	0.05	7.63
84.192	14.06	22.96	-0.05	7.53
84.224	14.06	22.96	-0.05	7.53
84.256	15.04	23.94	-0.05	7.53
84.288	15.04	23.94	0.03	7.60
84.320	15.04	23.94	0.03	7.60
84.352	15.70	24.60	0.03	7.60
84.384	15.70	24.60	-0.00	7.58
84.416	15.70	24.60	-0.00	7.58
84.448	15.74	24.64	-0.00	7.58
84.480	15.74	24.64	-0.05	7.53
84.512	15.74	24.64	-0.05	7.53
84.544	15.54	24.44	-0.05	7.53
84.576	15.54	24.44	0.05	7.63
84.608	15.54	24.44	0.05	7.63
84.640	16.25	25.15	0.05	7.63
84.672	16.25	25.15	-0.05	7.53
84.704	16.25	25.15	-0.05	7.53
84.736	16.89	25.79	-0.05	7.53
84.768	16.89	25.79	0.03	7.60
84.800	16.89	25.79	0.03	7.60
84.832	16.92	25.83	0.03	7.60
84.864	16.92	25.83	-0.00	7.57
84.896	16.92	25.83	-0.00	7.57
84.928	17.07	25.97	-0.00	7.57
84.960	17.07	25.97	-0.05	7.52
84.992	17.07	25.97	-0.05	7.52
85.024	17.78	26.68	-0.05	7.52
85.056	17.78	26.68	0.05	7.63
85.088	17.78	26.68	0.05	7.63
85.120	17.84	26.74	0.05	7.63
85.152	17.84	26.74	-0.05	7.52
85.184	17.84	26.74	-0.05	7.52
85.216	17.39	26.29	-0.05	7.52
85.248	17.39	26.29	0.03	7.61
85.280	17.39	26.29	0.03	7.61
85.312	17.32	26.22	0.03	7.61
85.344	17.32	26.22	-0.01	7.57
85.376	17.32	26.22	-0.01	7.57
85.408	16.82	25.72	-0.01	7.57
85.440	16.82	25.72	-0.05	7.52
85.472	16.82	25.72	-0.05	7.52
85.504	17.82	26.73	-0.05	7.52
85.536	17.82	26.73	0.05	7.63
85.568	17.82	26.73	0.05	7.63
85.600	17.74	26.64	0.05	7.63
85.632	17.74	26.64	-0.06	7.52
85.664	17.74	26.64	-0.06	7.52
85.696	17.12	26.02	-0.06	7.52
85.728	17.12	26.02	0.03	7.60
85.760	17.12	26.02	0.03	7.60
85.792	17.11	26.01	0.03	7.60
85.824	17.11	26.01	-0.01	7.57
85.856	17.11	26.01	-0.01	7.57
85.888	16.82	25.72	-0.01	7.57
85.920	16.82	25.72	-0.05	7.53
85.952	16.82	25.72	-0.05	7.53
85.984	17.17	26.07	-0.05	7.53
86.016	17.17	26.07	0.05	7.62
86.048	17.17	26.07	0.05	7.62
86.080	17.46	26.36	0.05	7.62
86.112	17.46	26.36	-0.05	7.52
86.144	17.46	26.36	-0.05	7.52
86.176	17.15	26.05	-0.05	7.52
86.208	17.15	26.05	0.03	7.61
86.240	17.15	26.05	0.03	7.61
86.272	18.64	27.54	0.03	7.61
86.304	18.64	27.54	-0.01	7.57
86.336	18.64	27.54	-0.01	7.57
86.368	17.52	26.42	-0.01	7.57
86.400	17.52	26.42	-0.05	7.53
86.432	17.52	26.42	-0.05	7.53
86.464	17.06	25.96	-0.05	7.53
86.496	17.06	25.96	0.05	7.63
86.528	17.06	25.96	0.05	7.63
86.560	18.11	27.01	0.05	7.63
86.592	18.11	27.01	-0.05	7.52
86.624	18.11	27.01	-0.05	7.52
86.656	19.39	28.29	-0.05	7.52
86.688	19.39	28.29	0.03	7.61
86.720	19.39	28.29	0.03	7.61
86.752	18.49	27.39	0.03	7.61
86.784	18.49	27.39	-0.01	7.57
86.816	18.49	27.39	-0.01	7.57
86.848	18.84	27.74	-0.01	7.57
86.880	18.84	27.74	-0.05	7.53
86.912	18.84	27.74	-0.05	7.53
86.944	18.11	27.01	-0.05	7.53
86.976	18.11	27.01	0.05	7.62
87.008	18.11	27.01	0.05	7.62
87.040	19.29	28.19	0.05	7.62
87.072	19.29	28.19	-0.06	7.52
87.104	19.29	28.19	-0.06	7.52
87.136	19.30	28.20	-0.06	7.52
87.168	19.30	28.20	0.03	7.61
87.200	19.30	28.20	0.03	7.61
87.232	19.13	28.03	0.03	7.61
87.264	19.13	28.03	-0.02	7.56
87.296	19.13	28.03	-0.02	7.56
87.328	19.46	28.36	-0.02	7.56
87.360	19.46	28.36	-0.05	7.53
87.392	19.46	28.36	-0.05	7.53
87.424	18.31	27.21	-0.05	7.53
87.456	18.31	27.21	0.05	7.62
87.488	18.31	27.21	0.05	7.62
87.520	17.46	26.37	0.05	7.62
87.552	17.46	26.37	-0.06	7.52
87.584	17.46	26.37	-0.06	7.52
87.616	17.32	26.22	-0.06	7.52
87.648	17.32	26.22	0.03	7.61
87.680	17.32	26.22	0.03	7.61
87.712	17.19	26.09	0.03	7.61
87.744	17.19	26.09	-0.01	7.56
87.776	17.19	26.09	-0.01	7.56
87.808	16.41	25.31	-0.01	7.56
87.840	16.41	25.31	-0.05	7.53
87.872	16.41	25.31	-0.05	7.53
87.904	16.06	24.96	-0.05	7.53
87.936	16.06	24.96	0.05	7.63
87.968	16.06	24.96	0.05	7.63
88.000	15.02	23.92	0.05	7.63
88.032	15.02	23.92	-0.05	7.52
88.064	15.02	23.92	-0.05	7.52
88.096	14.79	23.69	-0.05	7.52
88.128	14.79	23.69	0.03	7.61
88.160	14.79	23.69	0.03	7.61
88.192	15.41	24.32	0.03	7.61
88.224	15.41	24.32	-0.02	7.56
88.256	15.41	24.32	-0.02	7.56
88.288	15.79	24.69	-0.02	7.56
88.320	15.79	24.69	-0.04	7.53
88.352	15.79	24.69	-0.04	7.53
88.384	15.42	24.32	-0.04	7.53
88.416	15.42	24.32	0.05	7.63
88.448	15.42	24.32	0.05	7.63
88.480	15.17	24.07	0.05	7.63
88.512	15.17	24.07	-0.06	7.52
88.544	15.17	24.07	-0.06	7.52
88.576	14.45	23.35	-0.06	7.52
88.608	14.45	23.35	0.03	7.60
88.640	14.45	23.35	0.03	7.60
88.672	15.51	24.41	0.03	7.60
88.704	15.51	24.41	-0.02	7.56
88.736	15.51	24.41	-0.02	7.56
88.768	15.64	24.54	-0.02	7.56
88.800	15.64	24.54	-0.04	7.53
88.832	15.64	24.54	-0.04	7.53
88.864	15.21	24.11	-0.04	7.53
88.896	15.21	24.11	0.05	7.62
88.928	15.21	24.11	0.05	7.62
88.960	15.49	24.39	0.05	7.62
88.992	15.49	24.39	-0.05	7.52
89.024	15.49	24.39	-0.05	7.52
89.056	21.66	30.56	-0.05	7.52
89.088	21.66	30.56	0.04	7.61
89.120	21.66	30.56	0.04	7.61
89.152	23.96	32.86	0.04	7.61
89.184	23.96	32.86	-0.02	7.55
89.216	23.96	32.86	-0.02	7.55
89.248	20.44	29.34	-0.02	7.55
89.280	20.44	29.34	-0.04	7.54
89.312	20.44	29.34	-0.04	7.54
89.344	23.86	32.76	-0.04	7.54
89.376	23.86	32.76	0.05	7.62
89.408	23.86	32.76	0.05	7.62
89.440	22.56	31.46	0.05	7.62
89.472	22.56	31.46	-0.06	7.52
89.504	22.56	31.46	-0.06	7.52
89.536	20.33	29.23	-0.06	7.52
89.568	20.33	29.23	0.03	7.61
89.600	20.33	29.23	0.03	7.61
89.632	18.25	27.15	0.03	7.61
89.664	18.25	27.15	-0.02	7.55
89.696	18.25	27.15	-0.02	7.55
89.728	17.31	26.22	-0.02	7.55
89.760	17.31	26.22	-0.04	7.54
89.792	17.31	26.22	-0.04	7.54
89.824	16.06	24.97	-0.04	7.54
89.856	16.06	24.97	0.05	7.62
89.888	16.06	24.97	0.05	7.62
89.920	15.45	24.35	0.05	7.62
89.952	15.45	24.35	-0.06	7.52
89.984	15.45	24.35	-0.06	7.52
90.016	14.75	23.65	-0.06	7.52
90.048	14.75	23.65	0.04	7.61
90.080	14.75	23.65	0.04	7.61
90.112	14.55	23.45	0.04	7.61
90.144	14.55	23.45	-0.02	7.55
90.176	14.55	23.45	-0.02	7.55
90.208	14.87	23.77	-0.02	7.55
90.240	14.87	23.77	-0.04	7.54
90.272	14.87	23.77	-0.04	7.54
90.304	13.99	22.89	-0.04	7.54
90.336	13.99	22.89	0.05	7.62
90.368	13.99	22.89	0.05	7.62
90.400	14.38	23.28	0.05	7.62
90.432	14.38	23.28	-0.05	7.52
90.464	14.38	23.28	-0.05	7.52
90.496	14.69	23.59	-0.05	7.52
90.528	14.69	23.59	0.03	7.61
90.560	14.69	23.59	0.03	7.61
90.592	14.05	22.95	0.03	7.61
90.624	14.05	22.95	-0.02	7.55
90.656	14.05	22.95	-0.02	7.55
90.688	13.94	22.84	-0.02	7.55
90.720	13.94	22.84	-0.04	7.54
90.752	13.94	22.84	-0.04	7.54
90.784	14.39	23.29	-0.04	7.54
90.816	14.39	23.29	0.04	7.62
90.848	14.39	23.29	0.04	7.62
90.880	14.46	23.36	0.04	7.62
90.912	14.46	23.36	-0.06	7.52
90.944	14.46	23.36	-0.06	7.52
90.976	14.63	23.53	-0.06	7.52
91.008	14.63	23.53	0.04	7.61
91.040	14.63	23.53	0.04	7.61
91.072	14.99	23.89	0.04	7.61
91.104	14.99	23.89	-0.03	7.55
91.136	14.99	23.89	-0.03	7.55
91.168	14.37	23.27	-0.03	7.55
91.200	14.37	23.27	-0.03	7.54
91.232	14.37	23.27	-0.03	7.54
91.264	14.97	23.87	-0.03	7.54
91.296	14.97	23.87	0.05	7.62
91.328	14.97	23.87	0.05	7.62
91.360	14.58	23.48	0.05	7.62
91.392	14.58	23.48	-0.05	7.52
91.424	14.58	23.48	-0.05	7.52
91.456	14.20	23.10	-0.05	7.52
91.488	14.20	23.10	0.03	7.61
91.520	14.20	23.10	0.03	7.61
91.552	14.47	23.37	0.03	7.61
91.584	14.47	23.37	-0.03	7.55
91.616	14.47	23.37	-0.03	7.55
91.648	14.84	23.74	-0.03	7.55
91.680	14.84	23.74	-0.03	7.54
91.712	14.84	23.74	-0.03	7.54
91.744	13.79	22.69	-0.03	7.54
91.776	13.79	22.69	0.05	7.62
91.808	13.79	22.69	0.05	7.62
91.840	13.40	22.30	0.05	7.62
91.872	13.40	22.30	-0.06	7.52
91.904	13.40	22.30	-0.06	7.52
91.936	13.29	22.19	-0.06	7.52
91.968	13.29	22.19	0.04	7.61
92.000	13.29	22.19	0.04	7.61
92.032	13.86	22.76	0.04	7.61
92.064	13.86	22.76	-0.03	7.55
92.096	13.86	22.76	-0.03	7.55
92.128	14.81	23.71	-0.03	7.55
92.160	14.81	23.71	-0.03	7.54
92.192	14.81	23.71	-0.03	7.54
92.224	15.79	24.69	-0.03	7.54
92.256	15.79	24.69	0.04	7.62
92.288	15.79	24.69	0.04	7.62
92.320	13.69	22.59	0.04	7.62
92.352	13.69	22.59	-0.05	7.52
92.384	13.69	22.59	-0.05	7.52
92.416	14.12	23.02	-0.05	7.52
92.448	14.12	23.02	0.04	7.61
92.480	14.12	23.02	0.04	7.61
92.512	12.68	21.58	0.04	7.61
92.544	12.68	21.58	-0.03	7.54
92.576	12.68	21.58	-0.03	7.54
92.608	12.92	21.82	-0.03	7.54
92.640	12.92	21.82	-0.03	7.55
92.672	12.92	21.82	-0.03	7.55
92.704	13.20	22.10	-0.03	7.55
92.736	13.20	22.10	0.05	7.62
92.768	13.20	22.10	0.05	7.62
92.800	13.42	22.32	0.05	7.62
92.832	13.42	22.32	-0.05	7.52
92.864	13.42	22.32	-0.05	7.52
92.896	12.84	21.74	-0.05	7.52
92.928	12.84	21.74	0.03	7.61
92.960	12.84	21.74	0.03	7.61
92.992	13.19	22.09	0.03	7.61
93.024	13.19	22.09	-0.03	7.54
93.056	13.19	22.09	-0.03	7.54
93.088	13.08	21.98	-0.03	7.54
93.120	13.08	21.98	-0.03	7.55
93.152	13.08	21.98	-0.03	7.55
93.184	13.56	22.46	-0.03	7.55
93.216	13.56	22.46	0.04	7.62
93.248	13.56	22.46	0.04	7.62
93.280	12.81	21.71	0.04	7.62
93.312	12.81	21.71	-0.06	7.52
93.344	12.81	21.71	-0.06	7.52
93.376	12.79	21.69	-0.06	7.52
93.408	12.79	21.69	0.03	7.61
93.440	12.79	21.69	0.03	7.61
93.472	13.06	21.97	0.03	7.61
93.504	13.06	21.97	-0.03	7.55
93.536	13.06	21.97	-0.03	7.55
93.568	12.68	21.58	-0.03	7.55
93.600	12.68	21.58	-0.03	7.55
93.632	12.68	21.58	-0.03	7.55
93.664	12.27	21.17	-0.03	7.55
93.696	12.27	21.17	0.05	7.62
93.728	12.27	21.17	0.05	7.62
93.760	12.68	21.58	0.05	7.62
93.792	12.68	21.58	-0.06	7.52
93.824	12.68	21.58	-0.06	7.52
93.856	12.57	21.47	-0.06	7.52
93.888	12.57	21.47	0.04	7.61
93.920	12.57	21.47	0.04	7.61
93.952	13.41	22.31	0.04	7.61
93.984	13.41	22.31	-0.03	7.55
94.016	13.41	22.31	-0.03	7.55
94.048	12.32	21.23	-0.03	7.55
94.080	12.32	21.23	-0.02	7.55
94.112	12.32	21.23	-0.02	7.55
94.144	12.60	21.50	-0.02	7.55
94.176	12.60	21.50	0.04	7.62
94.208	12.60	21.50	0.04	7.62
94.240	11.95	20.85	0.04	7.62
94.272	11.95	20.85	-0.06	7.52
94.304	11.95	20.85	-0.06	7.52
94.336	11.61	20.51	-0.06	7.52
94.368	11.61	20.51	0.04	7.62
94.400	11.61	20.51	0.04	7.62
94.432	11.66	20.57	0.04	7.62
94.464	11.66	20.57	-0.03	7.54
94.496	11.66	20.57	-0.03	7.54
94.528	11.91	20.81	-0.03	7.54
94.560	11.91	20.81	-0.02	7.55
94.592	11.91	20.81	-0.02	7.55
94.624	12.62	21.52	-0.02	7.55
94.656	12.62	21.52	0.04	7.62
94.688	12.62	21.52	0.04	7.62
94.720	12.33	21.23	0.04	7.62
94.752	12.33	21.23	-0.06	7.52
94.784	12.33	21.23	-0.06	7.52
94.816	11.51	20.41	-0.06	7.52
94.848	11.51	20.41	0.04	7.62
94.880	11.51	20.41	0.04	7.62
94.912	12.44	21.34	0.04	7.62
94.944	12.44	21.34	-0.03	7.54
94.976	12.44	21.34	-0.03	7.54
95.008	11.79	20.69	-0.03	7.54
95.040	11.79	20.69	-0.02	7.55
95.072	11.79	20.69	-0.02	7.55
95.104	12.00	20.90	-0.02	7.55
95.136	12.00	20.90	0.04	7.62
95.168	12.00	20.90	0.04	7.62
95.200	11.81	20.71	0.04	7.62
95.232	11.81	20.71	-0.06	7.52
95.264	11.81	20.71	-0.06	7.52
95.296	11.19	20.09	-0.06	7.52
95.328	11.19	20.09	0.04	7.62
95.360	11.19	20.09	0.04	7.62
95.392	11.98	20.88	0.04	7.62
95.424	11.98	20.88	-0.04	7.54
95.456	11.98	20.88	-0.04	7.54
95.488	12.42	21.32	-0.04	7.54
95.520	12.42	21.32	-0.02	7.56
95.552	12.42	21.32	-0.02	7.56
95.584	12.41	21.31	-0.02	7.56
95.616	12.41	21.31	0.05	7.62
95.648	12.41	21.31	0.05	7.62
95.680	11.91	20.81	0.05	7.62
95.712	11.91	20.81	-0.06	7.52
95.744	11.91	20.81	-0.06	7.52
95.776	12.71	21.61	-0.06	7.52
95.808	12.71	21.61	0.05	7.62
95.840	12.71	21.61	0.05	7.62
95.872	13.14	22.04	0.05	7.62
95.904	13.14	22.04	-0.03	7.54
95.936	13.14	22.04	-0.03	7.54
95.968	13.12	22.03	-0.03	7.54
96.000	13.12	22.03	-0.02	7.56
96.032	13.12	22.03	-0.02	7.56
96.064	12.06	20.96	-0.02	7.56
96.096	12.06	20.96	0.04	7.62
96.128	12.06	20.96	0.04	7.62
96.160	11.99	20.89	0.04	7.62
96.192	11.99	20.89	-0.06	7.52
96.224	11.99	20.89	-0.06	7.52
96.256	11.66	20.57	-0.06	7.52
96.288	11.66	20.57	0.04	7.62
96.320	11.66	20.57	0.04	7.62
96.352	12.70	21.60	0.04	7.62
96.384	12.70	21.60	-0.03	7.54
96.416	12.70	21.60	-0.03	7.54
96.448	11.96	20.86	-0.03	7.54
96.480	11.96	20.86	-0.02	7.56
96.512	11.96	20.86	-0.02	7.56
96.544	11.71	20.61	-0.02	7.56
96.576	11.71	20.61	0.05	7.62
96.608	11.71	20.61	0.05	7.62
96.640	12.78	21.68	0.05	7.62
96.672	12.78	21.68	-0.06	7.52
96.704	12.78	21.68	-0.06	7.52
96.736	13.11	22.01	-0.06	7.52
96.768	13.11	22.01	0.04	7.62
96.800	13.11	22.01	0.04	7.62
96.832	12.69	21.59	0.04	7.62
96.864	12.69	21.59	-0.04	7.54
96.896	12.69	21.59	-0.04	7.54
96.928	12.79	21.69	-0.04	7.54
96.960	12.79	21.69	-0.01	7.56
96.992	12.79	21.69	-0.01	7.56
97.024	12.56	21.46	-0.01	7.56
97.056	12.56	21.46	0.04	7.62
97.088	12.56	21.46	0.04	7.62
97.120	13.07	21.97	0.04	7.62
97.152	13.07	21.97	-0.06	7.52
97.184	13.07	21.97	-0.06	7.52
97.216	13.17	22.07	-0.06	7.52
97.248	13.17	22.07	0.04	7.62
97.280	13.17	22.07	0.04	7.62
97.312	13.52	22.43	0.04	7.62
97.344	13.52	22.43	-0.04	7.54
97.376	13.52	22.43	-0.04	7.54
97.408	12.79	21.69	-0.04	7.54
97.440	12.79	21.69	-0.01	7.57
97.472	12.79	21.69	-0.01	7.57
97.504	13.22	22.12	-0.01	7.57
97.536	13.22	22.12	0.04	7.62
97.568	13.22	22.12	0.04	7.62
97.600	12.06	20.96	0.04	7.62
97.632	12.06	20.96	-0.06	7.52
97.664	12.06	20.96	-0.06	7.52
97.696	12.22	21.13	-0.06	7.52
97.728	12.22	21.13	0.05	7.62
97.760	12.22	21.13	0.05	7.62
97.792	12.31	21.21	0.05	7.62
97.824	12.31	21.21	-0.03	7.54
97.856	12.31	21.21	-0.03	7.54
97.888	12.54	21.44	-0.03	7.54
97.920	12.54	21.44	-0.01	7.57
97.952	12.54	21.44	-0.01	7.57
97.984	12.30	21.20	-0.01	7.57
98.016	12.30	21.20	0.04	7.62
98.048	12.30	21.20	0.04	7.62
98.080	12.41	21.31	0.04	7.62
98.112	12.41	21.31	-0.05	7.52
98.144	12.41	21.31	-0.05	7.52
98.176	12.13	21.03	-0.05	7.52
98.208	12.13	21.03	0.05	7.63
98.240	12.13	21.03	0.05	7.63
98.272	12.31	21.22	0.05	7.63
98.304	12.31	21.22	-0.04	7.54
98.336	12.31	21.22	-0.04	7.54
98.368	11.98	20.88	-0.04	7.54
98.400	11.98	20.88	-0.01	7.57
98.432	11.98	20.88	-0.01	7.57
98.464	12.51	21.41	-0.01	7.57
98.496	12.51	21.41	0.04	7.62
98.528	12.51	21.41	0.04	7.62
98.560	12.30	21.20	0.04	7.62
98.592	12.30	21.20	-0.06	7.52
98.624	12.30	21.20	-0.06	7.52
98.656	12.50	21.40	-0.06	7.52
98.688	12.50	21.40	0.05	7.63
98.720	12.50	21.40	0.05	7.63
98.752	12.04	20.94	0.05	7.63
98.784	12.04	20.94	-0.04	7.54
98.816	12.04	20.94	-0.04	7.54
98.848	12.28	21.18	-0.04	7.54
98.880	12.28	21.18	-0.00	7.57
98.912	12.28	21.18	-0.00	7.57
98.944	12.46	21.36	-0.00	7.57
98.976	12.46	21.36	0.04	7.61
99.008	12.46	21.36	0.04	7.61
99.040	13.42	22.32	0.04	7.61
99.072	13.42	22.32	-0.06	7.52
99.104	13.42	22.32	-0.06	7.52
99.136	12.49	21.39	-0.06	7.52
99.168	12.49	21.39	0.05	7.62
99.200	12.49	21.39	0.05	7.62
99.232	12.78	21.68	0.05	7.62
99.264	12.78	21.68	-0.04	7.54
99.296	12.78	21.68	-0.04	7.54
99.328	12.43	21.33	-0.04	7.54
99.360	12.43	21.33	-0.00	7.57
99.392	12.43	21.33	-0.00	7.57
99.424	11.61	20.51	-0.00	7.57
99.456	11.61	20.51	0.04	7.62
99.488	11.61	20.51	0.04	7.62
99.520	11.67	20.57	0.04	7.62
99.552	11.67	20.57	-0.06	7.52
99.584	11.67	20.57	-0.06	7.52
99.616	12.10	21.00	-0.06	7.52
99.648	12.10	21.00	0.05	7.62
99.680	12.10	21.00	0.05	7.62
99.712	12.56	21.46	0.05	7.62
99.744	12.56	21.46	-0.04	7.54
99.776	12.56	21.46	-0.04	7.54
99.808	12.26	21.16	-0.04	7.54
99.840	12.26	21.16	-0.00	7.58
99.872	12.26	21.16	-0.00	7.58
99.904	12.37	21.27	-0.00	7.58
99.936	12.37	21.27	0.04	7.61
99.968	12.37	21.27	0.04	7.61
100.000	12.87	21.77	0.04	7.61
100.032	12.87	21.77	-0.06	7.52
100.064	12.87	21.77	-0.06	7.52
100.096	11.70	20.60	-0.06	7.52
100.128	11.70	20.60	0.05	7.62
100.160	11.70	20.60	0.05	7.62
100.192	11.67	20.58	0.05	7.62
100.224	11.67	20.58	-0.04	7.54
100.256	11.67	20.58	-0.04	7.54
100.288	11.89	20.79	-0.04	7.54
100.320	11.89	20.79	0.00	7.58
100.352	11.89	20.79	0.00	7.58
100.384	11.40	20.30	0.00	7.58
100.416	11.40	20.30	0.04	7.61
100.448	11.40	20.30	0.04	7.61
100.480	11.65	20.55	0.04	7.61
100.512	11.65	20.55	-0.06	7.52
100.544	11.65	20.55	-0.06	7.52
100.576	10.68	19.58	-0.06	7.52
100.608	10.68	19.58	0.05	7.63
100.640	10.68	19.58	0.05	7.63
100.672	11.06	19.96	0.05	7.63
100.704	11.06	19.96	-0.04	7.54
100.736	11.06	19.96	-0.04	7.54
100.768	11.42	20.32	-0.04	7.54
100.800	11.42	20.32	0.00	7.58
100.832	11.42	20.32	0.00	7.58
100.864	11.86	20.76	0.00	7.58
100.896	11.86	20.76	0.04	7.61
100.928	11.86	20.76	0.04	7.61
100.960	11.27	20.18	0.04	7.61
100.992	11.27	20.18	-0.05	7.52
101.024	11.27	20.18	-0.05	7.52
101.056	14.05	22.95	-0.05	7.52
101.088	14.05	22.95	0.05	7.63
101.120	14.05	22.95	0.05	7.63
101.152	12.46	21.37	0.05	7.63
101.184	12.46	21.37	-0.04	7.54
101.216	12.46	21.37	-0.04	7.54
101.248	12.51	21.41	-0.04	7.54
101.280	12.51	21.41	0.01	7.59
101.312	12.51	21.41	0.01	7.59
101.344	12.94	21.84	0.01	7.59
101.376	12.94	21.84	0.04	7.61
101.408	12.94	21.84	0.04	7.61
101.440	12.31	21.21	0.04	7.61
101.472	12.31	21.21	-0.06	7.52
101.504	12.31	21.21	-0.06	7.52
101.536	12.05	20.95	-0.06	7.52
101.568	12.05	20.95	0.05	7.63
101.600	12.05	20.95	0.05	7.63
101.632	11.74	20.64	0.05	7.63
101.664	11.74	20.64	-0.04	7.54
101.696	11.74	20.64	-0.04	7.54
101.728	11.15	20.05	-0.04	7.54
101.760	11.15	20.05	0.01	7.59
101.792	11.15	20.05	0.01	7.59
101.824	11.75	20.65	0.01	7.59
101.856	11.75	20.65	0.03	7.61
101.888	11.75	20.65	0.03	7.61
101.920	13.27	22.17	0.03	7.61
101.952	13.27	22.17	-0.06	7.52
101.984	13.27	22.17	-0.06	7.52
102.016	14.76	23.66	-0.06	7.52
102.048	14.76	23.66	0.05	7.62
102.080	14.76	23.66	0.05	7.62
102.112	13.35	22.25	0.05	7.62
102.144	13.35	22.25	-0.04	7.54
102.176	13.35	22.25	-0.04	7.54
102.208	12.40	21.30	-0.04	7.54
102.240	12.40	21.30	0.01	7.59
102.272	12.40	21.30	0.01	7.59
102.304	13.03	21.93	0.01	7.59
102.336	13.03	21.93	0.03	7.61
102.368	13.03	21.93	0.03	7.61
102.400	12.89	21.79	0.03	7.61
102.432	12.89	21.79	-0.05	7.52
102.464	12.89	21.79	-0.05	7.52
102.496	13.27	22.17	-0.05	7.52
102.528	13.27	22.17	0.05	7.62
102.560	13.27	22.17	0.05	7.62
102.592	13.16	22.06	0.05	7.62
102.624	13.16	22.06	-0.04	7.54
102.656	13.16	22.06	-0.04	7.54
102.688	13.29	22.19	-0.04	7.54
102.720	13.29	22.19	0.01	7.59
102.752	13.29	22.19	0.01	7.59
102.784	17.23	26.13	0.01	7.59
102.816	17.23	26.13	0.02	7.60
102.848	17.23	26.13	0.02	7.60
102.880	14.36	23.26	0.02	7.60
102.912	14.36	23.26	-0.05	7.52
102.944	14.36	23.26	-0.05	7.52
102.976	13.24	22.14	-0.05	7.52
103.008	13.24	22.14	0.05	7.63
103.040	13.24	22.14	0.05	7.63
103.072	15.16	24.06	0.05	7.63
103.104	15.16	24.06	-0.04	7.53
103.136	15.16	24.06	-0.04	7.53
103.168	15.01	23.91	-0.04	7.53
103.200	15.01	23.91	0.01	7.59
103.232	15.01	23.91	0.01	7.59
103.264	14.92	23.83	0.01	7.59
103.296	14.92	23.83	0.02	7.60
103.328	14.92	23.83	0.02	7.60
103.360	15.54	24.44	0.02	7.60
103.392	15.54	24.44	-0.06	7.52
103.424	15.54	24.44	-0.06	7.52
103.456	15.20	24.10	-0.06	7.52
103.488	15.20	24.10	0.06	7.63
103.520	15.20	24.10	0.06	7.63
103.552	15.86	24.76	0.06	7.63
103.584	15.86	24.76	-0.04	7.53
103.616	15.86	24.76	-0.04	7.53
103.648	16.30	25.20	-0.04	7.53
103.680	16.30	25.20	0.02	7.59
103.712	16.30	25.20	0.02	7.59
103.744	16.35	25.25	0.02	7.59
103.776	16.35	25.25	0.02	7.59
103.808	16.35	25.25	0.02	7.59
103.840	16.13	25.03	0.02	7.59
103.872	16.13	25.03	-0.05	7.52
103.904	16.13	25.03	-0.05	7.52
103.936	15.64	24.54	-0.05	7.52
103.968	15.64	24.54	0.05	7.63
104.000	15.64	24.54	0.05	7.63
104.032	15.53	24.43	0.05	7.63
104.064	15.53	24.43	-0.04	7.54
104.096	15.53	24.43	-0.04	7.54
104.128	16.54	25.44	-0.04	7.54
104.160	16.54	25.44	0.02	7.59
104.192	16.54	25.44	0.02	7.59
104.224	15.71	24.62	0.02	7.59
104.256	15.71	24.62	0.02	7.59
104.288	15.71	24.62	0.02	7.59
104.320	16.27	25.17	0.02	7.59
104.352	16.27	25.17	-0.05	7.52
104.384	16.27	25.17	-0.05	7.52
104.416	15.52	24.42	-0.05	7.52
104.448	15.52	24.42	0.05	7.62
104.480	15.52	24.42	0.05	7.62
104.512	14.75	23.65	0.05	7.62
104.544	14.75	23.65	-0.04	7.54
104.576	14.75	23.65	-0.04	7.54
104.608	15.02	23.92	-0.04	7.54
104.640	15.02	23.92	0.02	7.60
104.672	15.02	23.92	0.02	7.60
104.704	15.85	24.75	0.02	7.60
104.736	15.85	24.75	0.01	7.59
104.768	15.85	24.75	0.01	7.59
104.800	15.27	24.17	0.01	7.59
104.832	15.27	24.17	-0.05	7.52
104.864	15.27	24.17	-0.05	7.52
104.896	15.60	24.50	-0.05	7.52
104.928	15.60	24.50	0.05	7.63
104.960	15.60	24.50	0.05	7.63
104.992	15.67	24.57	0.05	7.63
105.024	15.67	24.57	-0.04	7.54
105.056	15.67	24.57	-0.04	7.54
105.088	14.35	23.25	-0.04	7.54
105.120	14.35	23.25	0.02	7.60
105.152	14.35	23.25	0.02	7.60
105.184	15.03	23.93	0.02	7.60
105.216	15.03	23.93	0.01	7.59
105.248	15.03	23.93	0.01	7.59
105.280	14.47	23.37	0.01	7.59
105.312	14.47	23.37	-0.06	7.52
105.344	14.47	23.37	-0.06	7.52
105.376	14.57	23.47	-0.06	7.52
105.408	14.57	23.47	0.06	7.63
105.440	14.57	23.47	0.06	7.63
105.472	14.50	23.40	0.06	7.63
105.504	14.50	23.40	-0.04	7.53
105.536	14.50	23.40	-0.04	7.53
105.568	15.35	24.25	-0.04	7.53
105.600	15.35	24.25	0.02	7.60
105.632	15.35	24.25	0.02	7.60
105.664	14.86	23.77	0.02	7.60
105.696	14.86	23.77	0.01	7.59
105.728	14.86	23.77	0.01	7.59
105.760	16.61	25.52	0.01	7.59
105.792	16.61	25.52	-0.05	7.52
105.824	16.61	25.52	-0.05	7.52
105.856	18.43	27.33	-0.05	7.52
105.888	18.43	27.33	0.05	7.63
105.920	18.43	27.33	0.05	7.63
105.952	19.40	28.30	0.05	7.63
105.984	19.40	28.30	-0.05	7.53
106.016	19.40	28.30	-0.05	7.53
106.048	20.10	29.00	-0.05	7.53
106.080	20.10	29.00	0.02	7.60
106.112	20.10	29.00	0.02	7.60
106.144	20.36	29.26	0.02	7.60
106.176	20.36	29.26	0.01	7.58
106.208	20.36	29.26	0.01	7.58
106.240	20.58	29.48	0.01	7.58
106.272	20.58	29.48	-0.06	7.52
106.304	20.58	29.48	-0.06	7.52
106.336	20.37	29.27	-0.06	7.52
106.368	20.37	29.27	0.05	7.63
106.400	20.37	29.27	0.05	7.63
106.432	20.45	29.35	0.05	7.63
106.464	20.45	29.35	-0.05	7.53
106.496	20.45	29.35	-0.05	7.53
106.528	16.50	25.40	-0.05	7.53
106.560	16.50	25.40	0.03	7.60
106.592	16.50	25.40	0.03	7.60
106.624	19.04	27.94	0.03	7.60
106.656	19.04	27.94	0.01	7.59
106.688	19.04	27.94	0.01	7.59
106.720	15.84	24.74	0.01	7.59
106.752	15.84	24.74	-0.05	7.52
106.784	15.84	24.74	-0.05	7.52
106.816	15.95	24.85	-0.05	7.52
106.848	15.95	24.85	0.05	7.63
106.880	15.95	24.85	0.05	7.63
106.912	14.34	23.24	0.05	7.63
106.944	14.34	23.24	-0.05	7.53
106.976	14.34	23.24	-0.05	7.53
107.008	13.69	22.59	-0.05	7.53
107.040	13.69	22.59	0.02	7.60
107.072	13.69	22.59	0.02	7.60
107.104	14.97	23.87	0.02	7.60
107.136	14.97	23.87	0.00	7.58
107.168	14.97	23.87	0.00	7.58
107.200	13.88	22.78	0.00	7.58
107.232	13.88	22.78	-0.05	7.52
107.264	13.88	22.78	-0.05	7.52
107.296	14.61	23.51	-0.05	7.52
107.328	14.61	23.51	0.05	7.63
107.360	14.61	23.51	0.05	7.63
107.392	13.08	21.98	0.05	7.63
107.424	13.08	21.98	-0.05	7.53
107.456	13.08	21.98	-0.05	7.53
107.488	13.62	22.52	-0.05	7.53
107.520	13.62	22.52	0.03	7.60
107.552	13.62	22.52	0.03	7.60
107.584	13.05	21.95	0.03	7.60
107.616	13.05	21.95	0.00	7.58
107.648	13.05	21.95	0.00	7.58
107.680	13.15	22.05	0.00	7.58
107.712	13.15	22.05	-0.05	7.52
107.744	13.15	22.05	-0.05	7.52
107.776	13.68	22.58	-0.05	7.52
107.808	13.68	22.58	0.05	7.63
107.840	13.68	22.58	0.05	7.63
107.872	13.24	22.14	0.05	7.63
107.904	13.24	22.14	-0.05	7.53
107.936	13.24	22.14	-0.05	7.53
107.968	12.29	21.19	-0.05	7.53
108.000	12.29	21.19	0.03	7.60
108.032	12.29	21.19	0.03	7.60
108.064	12.57	21.47	0.03	7.60
108.096	12.57	21.47	-0.00	7.57
108.128	12.57	21.47	-0.00	7.57
108.160	12.94	21.84	-0.00	7.57
108.192	12.94	21.84	-0.05	7.52
108.224	12.94	21.84	-0.05	7.52
108.256	14.61	23.51	-0.05	7.52
108.288	14.61	23.51	0.05	7.63
108.320	14.61	23.51	0.05	7.63
108.352	19.12	28.03	0.05	7.63
108.384	19.12	28.03	-0.05	7.53
108.416	19.12	28.03	-0.05	7.53
108.448	17.98	26.88	-0.05	7.53
108.480	17.98	26.88	0.03	7.61
108.512	17.98	26.88	0.03	7.61
108.544	17.02	25.92	0.03	7.61
108.576	17.02	25.92	-0.00	7.57
108.608	17.02	25.92	-0.00	7.57
108.640	14.21	23.11	-0.00	7.57
108.672	14.21	23.11	-0.05	7.53
108.704	14.21	23.11	-0.05	7.53
108.736	14.31	23.21	-0.05	7.53
108.768	14.31	23.21	0.05	7.63
108.800	14.31	23.21	0.05	7.63
108.832	13.35	22.25	0.05	7.63
108.864	13.35	22.25	-0.05	7.52
108.896	13.35	22.25	-0.05	7.52
108.928	13.07	21.97	-0.05	7.52
108.960	13.07	21.97	0.03	7.61
108.992	13.07	21.97	0.03	7.61
109.024	14.42	23.32	0.03	7.61
109.056	14.42	23.32	-0.01	7.57
109.088	14.42	23.32	-0.01	7.57
109.120	15.74	24.64	-0.01	7.57
109.152	15.74	24.64	-0.05	7.53
109.184	15.74	24.64	-0.05	7.53
109.216	13.89	22.79	-0.05	7.53
109.248	13.89	22.79	0.05	7.62
109.280	13.89	22.79	0.05	7.62
109.312	13.23	22.13	0.05	7.62
109.344	13.23	22.13	-0.05	7.53
109.376	13.23	22.13	-0.05	7.53
109.408	12.46	21.36	-0.05	7.53
109.440	12.46	21.36	0.03	7.61
109.472	12.46	21.36	0.03	7.61
109.504	13.74	22.64	0.03	7.61
109.536	13.74	22.64	-0.02	7.56
109.568	13.74	22.64	-0.02	7.56
109.600	13.74	22.64	-0.02	7.56
109.632	13.74	22.64	-0.05	7.53
109.664	13.74	22.64	-0.05	7.53
109.696	12.52	21.42	-0.05	7.53
109.728	12.52	21.42	0.05	7.62
109.760	12.52	21.42	0.05	7.62
109.792	12.34	21.24	0.05	7.62
109.824	12.34	21.24	-0.05	7.52
109.856	12.34	21.24	-0.05	7.52
109.888	12.50	21.40	-0.05	7.52
109.920	12.50	21.40	0.03	7.61
109.952	12.50	21.40	0.03	7.61
109.984	13.93	22.83	0.03	7.61
110.016	13.93	22.83	-0.02	7.56
110.048	13.93	22.83	-0.02	7.56
110.080	19.08	27.98	-0.02	7.56
110.112	19.08	27.98	-0.04	7.54
110.144	19.08	27.98	-0.04	7.54
110.176	18.14	27.04	-0.04	7.54
110.208	18.14	27.04	0.05	7.62
110.240	18.14	27.04	0.05	7.62
110.272	16.49	25.39	0.05	7.62
110.304	16.49	25.39	-0.06	7.52
110.336	16.49	25.39	-0.06	7.52
110.368	15.93	24.83	-0.06	7.52
110.400	15.93	24.83	0.03	7.61
110.432	15.93	24.83	0.03	7.61
110.464	14.57	23.47	0.03	7.61
110.496	14.57	23.47	-0.02	7.55
110.528	14.57	23.47	-0.02	7.55
110.560	14.48	23.38	-0.02	7.55
110.592	14.48	23.38	-0.04	7.54
110.624	14.48	23.38	-0.04	7.54
110.656	14.57	23.48	-0.04	7.54
110.688	14.57	23.48	0.05	7.62
110.720	14.57	23.48	0.05	7.62
110.752	13.84	22.74	0.05	7.62
110.784	13.84	22.74	-0.06	7.52
110.816	13.84	22.74	-0.06	7.52
110.848	14.37	23.27	-0.06	7.52
110.880	14.37	23.27	0.04	7.61
110.912	14.37	23.27	0.04	7.61
110.944	14.51	23.41	0.04	7.61
110.976	14.51	23.41	-0.03	7.55
111.008	14.51	23.41	-0.03	7.55
111.040	13.86	22.76	-0.03	7.55
111.072	13.86	22.76	-0.03	7.55
111.104	13.86	22.76	-0.03	7.55
111.136	13.81	22.71	-0.03	7.55
111.168	13.81	22.71	0.05	7.62
111.200	13.81	22.71	0.05	7.62
111.232	14.13	23.03	0.05	7.62
111.264	14.13	23.03	-0.06	7.52
111.296	14.13	23.03	-0.06	7.52
111.328	13.29	22.19	-0.06	7.52
111.360	13.29	22.19	0.04	7.62
111.392	13.29	22.19	0.04	7.62
111.424	13.17	22.07	0.04	7.62
111.456	13.17	22.07	-0.03	7.55
111.488	13.17	22.07	-0.03	7.55
111.520	13.94	22.84	-0.03	7.55
111.552	13.94	22.84	-0.03	7.55
111.584	13.94	22.84	-0.03	7.55
111.616	15.33	24.23	-0.03	7.55
111.648	15.33	24.23	0.05	7.62
111.680	15.33	24.23	0.05	7.62
111.712	16.51	25.42	0.05	7.62
111.744	16.51	25.42	-0.05	7.52
111.776	16.51	25.42	-0.05	7.52
111.808	13.59	22.49	-0.05	7.52
111.840	13.59	22.49	0.04	7.61
111.872	13.59	22.49	0.04	7.61
111.904	13.95	22.85	0.04	7.61
111.936	13.95	22.85	-0.03	7.54
111.968	13.95	22.85	-0.03	7.54
112.000	13.47	22.37	-0.03	7.54
112.032	13.47	22.37	-0.02	7.55
112.064	13.47	22.37	-0.02	7.55
112.096	13.98	22.88	-0.02	7.55
112.128	13.98	22.88	0.04	7.62
112.160	13.98	22.88	0.04	7.62
112.192	13.51	22.41	0.04	7.62
112.224	13.51	22.41	-0.06	7.52
112.256	13.51	22.41	-0.06	7.52
112.288	14.93	23.83	-0.06	7.52
112.320	14.93	23.83	0.04	7.62
112.352	14.93	23.83	0.04	7.62
112.384	14.57	23.47	0.04	7.62
112.416	14.57	23.47	-0.04	7.54
112.448	14.57	23.47	-0.04	7.54
112.480	14.39	23.29	-0.04	7.54
112.512	14.39	23.29	-0.01	7.56
112.544	14.39	23.29	-0.01	7.56
112.576	13.23	22.13	-0.01	7.56
112.608	13.23	22.13	0.04	7.61
112.640	13.23	22.13	0.04	7.61
112.672	1.60	10.50	0.04	7.61
112.704	1.60	10.50	-0.06	7.51
112.736	1.60	10.50	-0.06	7.51
112.768	-2.95	5.95	-0.06	7.51
112.800	-2.95	5.95	0.04	7.61
112.832	-2.95	5.95	0.04	7.61
112.864	0.07	8.97	0.04	7.61
112.896	0.07	8.97	-0.04	7.54
112.928	0.07	8.97	-0.04	7.54
112.960	2.25	11.15	-0.04	7.54
112.992	2.25	11.15	-0.01	7.57
113.024	2.25	11.15	-0.01	7.57
113.056	2.60	11.50	-0.01	7.57
113.088	2.60	11.50	0.04	7.62
113.120	2.60	11.50	0.04	7.62
113.152	0.09	8.99	0.04	7.62
113.184	0.09	8.99	-0.06	7.52
113.216	0.09	8.99	-0.06	7.52
113.248	0.10	9.00	-0.06	7.52
113.280	0.10	9.00	0.04	7.62
113.312	0.10	9.00	0.04	7.62
113.344	1.04	9.94	0.04	7.62
113.376	1.04	9.94	-0.04	7.54
113.408	1.04	9.94	-0.04	7.54
113.440	1.60	10.50	-0.04	7.54
113.472	1.60	10.50	-0.01	7.57
113.504	1.60	10.50	-0.01	7.57
113.536	1.16	10.06	-0.01	7.57
113.568	1.16	10.06	0.04	7.62
113.600	1.16	10.06	0.04	7.62
113.632	0.50	9.40	0.04	7.62
113.664	0.50	9.40	-0.06	7.52
113.696	0.50	9.40	-0.06	7.52
113.728	0.71	9.61	-0.06	7.52
113.760	0.71	9.61	0.04	7.62
113.792	0.71	9.61	0.04	7.62
113.824	1.04	9.94	0.04	7.62
113.856	1.04	9.94	-0.04	7.53
113.888	1.04	9.94	-0.04	7.53
113.920	1.10	10.00	-0.04	7.53
113.952	1.10	10.00	0.00	7.58
113.984	1.10	10.00	0.00	7.58
114.016	0.89	9.79	0.00	7.58
114.048	0.89	9.79	0.04	7.61
114.080	0.89	9.79	0.04	7.61
114.112	0.74	9.64	0.04	7.61
114.144	0.74	9.64	-0.06	7.52
114.176	0.74	9.64	-0.06	7.52
114.208	0.88	9.78	-0.06	7.52
114.240	0.88	9.78	0.04	7.62
114.272	0.88	9.78	0.04	7.62
114.304	0.90	9.80	0.04	7.62
114.336	0.90	9.80	-0.04	7.53
114.368	0.90	9.80	-0.04	7.53
114.400	0.90	9.80	-0.04	7.53
114.432	0.90	9.80	0.00	7.58
114.464	0.90	9.80	0.00	7.58
114.496	0.96	9.86	0.00	7.58
114.528	0.96	9.86	0.03	7.61
114.560	0.96	9.86	0.03	7.61
114.592	0.91	9.81	0.03	7.61
114.624	0.91	9.81	-0.06	7.52
114.656	0.91	9.81	-0.06	7.52
114.688	0.96	9.86	-0.06	7.52
114.720	0.96	9.86	0.05	7.62
114.752	0.96	9.86	0.05	7.62
114.784	0.95	9.85	0.05	7.62
114.816	0.95	9.85	-0.04	7.53
114.848	0.95	9.85	-0.04	7.53
114.880	0.96	9.86	-0.04	7.53
114.912	0.96	9.86	0.01	7.58
114.944	0.96	9.86	0.01	7.58
114.976	1.00	9.90	0.01	7.58
115.008	1.00	9.90	0.03	7.61
115.040	1.00	9.90	0.03	7.61
115.072	0.99	9.89	0.03	7.61
115.104	0.99	9.89	-0.06	7.52
115.136	0.99	9.89	-0.06	7.52
115.168	1.03	9.93	-0.06	7.52
115.200	1.03	9.93	0.05	7.62
115.232	1.03	9.93	0.05	7.62
115.264	1.02	9.92	0.05	7.62
115.296	1.02	9.92	-0.04	7.53
115.328	1.02	9.92	-0.04	7.53
115.360	0.99	9.89	-0.04	7.53
115.392	0.99	9.89	0.01	7.59
115.424	0.99	9.89	0.01	7.59
115.456	1.02	9.92	0.01	7.59
115.488	1.02	9.92	0.02	7.60
115.520	1.02	9.92	0.02	7.60
115.552	0.99	9.89	0.02	7.60
115.584	0.99	9.89	-0.05	7.52
115.616	0.99	9.89	-0.05	7.52
115.648	1.04	9.94	-0.05	7.52
115.680	1.04	9.94	0.05	7.62
115.712	1.04	9.94	0.05	7.62
115.744	1.03	9.93	0.05	7.62
115.776	1.03	9.93	-0.04	7.53
115.808	1.03	9.93	-0.04	7.53
115.840	1.04	9.94	-0.04	7.53
115.872	1.04	9.94	0.02	7.59
115.904	1.04	9.94	0.02	7.59
115.936	1.06	9.96	0.02	7.59
115.968	1.06	9.96	0.02	7.59
116.000	1.06	9.96	0.02	7.59
116.032	0.99	9.89	0.02	7.59
116.064	0.99	9.89	-0.05	7.52
116.096	0.99	9.89	-0.05	7.52
116.128	1.03	9.93	-0.05	7.52
116.160	1.03	9.93	0.05	7.62
116.192	1.03	9.93	0.05	7.62
116.224	1.05	9.95	0.05	7.62
116.256	1.05	9.95	-0.05	7.53
116.288	1.05	9.95	-0.05	7.53
116.320	1.05	9.95	-0.05	7.53
116.352	1.05	9.95	0.02	7.60
116.384	1.05	9.95	0.02	7.60
116.416	1.08	9.98	0.02	7.60
116.448	1.08	9.98	0.01	7.59
116.480	1.08	9.98	0.01	7.59
116.512	1.05	9.95	0.01	7.59
116.544	1.05	9.95	-0.05	7.52
116.576	1.05	9.95	-0.05	7.52
116.608	1.05	9.95	-0.05	7.52
116.640	1.05	9.95	0.05	7.62
116.672	1.05	9.95	0.05	7.62
116.704	1.03	9.93	0.05	7.62
116.736	1.03	9.93	-0.05	7.53
116.768	1.03	9.93	-0.05	7.53
116.800	1.04	9.94	-0.05	7.53
116.832	1.04	9.94	0.02	7.60
116.864	1.04	9.94	0.02	7.60
116.896	1.04	9.94	0.02	7.60
116.928	1.04	9.94	0.01	7.58
116.960	1.04	9.94	0.01	7.58
116.992	0.98	9.88	0.01	7.58
117.024	0.98	9.88	-0.06	7.52
117.056	0.98	9.88	-0.06	7.52
117.088	0.90	9.80	-0.06	7.52
117.120	0.90	9.80	0.05	7.62
117.152	0.90	9.80	0.05	7.62
117.184	0.80	9.70	0.05	7.62
117.216	0.80	9.70	-0.05	7.52
117.248	0.80	9.70	-0.05	7.52
117.280	0.75	9.65	-0.05	7.52
117.312	0.75	9.65	0.02	7.60
117.344	0.75	9.65	0.02	7.60
117.376	0.81	9.71	0.02	7.60
117.408	0.81	9.71	0.00	7.58
117.440	0.81	9.71	0.00	7.58
117.472	0.77	9.67	0.00	7.58
117.504	0.77	9.67	-0.06	7.52
117.536	0.77	9.67	-0.06	7.52
117.568	0.82	9.73	-0.06	7.52
117.600	0.82	9.73	0.05	7.63
117.632	0.82	9.73	0.05	7.63
117.664	0.90	9.80	0.05	7.63
117.696	0.90	9.80	-0.05	7.53
117.728	0.90	9.80	-0.05	7.53
117.760	0.96	9.86	-0.05	7.53
117.792	0.96	9.86	0.02	7.60
117.824	0.96	9.86	0.02	7.60
117.856	0.86	9.76	0.02	7.60
117.888	0.86	9.76	-0.00	7.58
117.920	0.86	9.76	-0.00	7.58
117.952	0.87	9.77	-0.00	7.58
117.984	0.87	9.77	-0.05	7.52
118.016	0.87	9.77	-0.05	7.52
118.048	0.91	9.81	-0.05	7.52
118.080	0.91	9.81	0.05	7.62
118.112	0.91	9.81	0.05	7.62
118.144	0.91	9.81	0.05	7.62
118.176	0.91	9.81	-0.05	7.52
118.208	0.91	9.81	-0.05	7.52
118.240	0.92	9.82	-0.05	7.52
118.272	0.92	9.82	0.02	7.60
118.304	0.92	9.82	0.02	7.60
118.336	0.93	9.83	0.02	7.60
118.368	0.93	9.83	-0.01	7.57
118.400	0.93	9.83	-0.01	7.57
118.432	0.88	9.78	-0.01	7.57
118.464	0.88	9.78	-0.06	7.52
118.496	0.88	9.78	-0.06	7.52
118.528	0.94	9.84	-0.06	7.52
118.560	0.94	9.84	0.05	7.62
118.592	0.94	9.84	0.05	7.62
118.624	0.87	9.78	0.05	7.62
118.656	0.87	9.78	-0.05	7.52
118.688	0.87	9.78	-0.05	7.52
118.720	0.88	9.78	-0.05	7.52
118.752	0.88	9.78	0.03	7.60
118.784	0.88	9.78	0.03	7.60
118.816	0.93	9.83	0.03	7.60
118.848	0.93	9.83	-0.00	7.57
118.880	0.93	9.83	-0.00	7.57
118.912	0.90	9.80	-0.00	7.57
118.944	0.90	9.80	-0.05	7.52
118.976	0.90	9.80	-0.05	7.52
119.008	0.90	9.80	-0.05	7.52
119.040	0.90	9.80	0.05	7.62
119.072	0.90	9.80	0.05	7.62
119.104	0.78	9.68	0.05	7.62
119.136	0.78	9.68	-0.05	7.52
119.168	0.78	9.68	-0.05	7.52
119.200	0.67	9.57	-0.05	7.52
119.232	0.67	9.57	0.03	7.60
119.264	0.67	9.57	0.03	7.60
119.296	0.60	9.50	0.03	7.60
119.328	0.60	9.50	-0.01	7.57
119.360	0.60	9.50	-0.01	7.57
119.392	0.47	9.38	-0.01	7.57
119.424	0.47	9.38	-0.05	7.53
119.456	0.47	9.38	-0.05	7.53
119.488	0.46	9.37	-0.05	7.53
119.520	0.46	9.37	0.05	7.62
119.552	0.46	9.37	0.05	7.62
119.584	0.35	9.25	0.05	7.62
119.616	0.35	9.25	-0.05	7.52
119.648	0.35	9.25	-0.05	7.52
119.680	0.31	9.21	-0.05	7.52
119.712	0.31	9.21	0.03	7.60
119.744	0.31	9.21	0.03	7.60
119.776	0.27	9.17	0.03	7.60
119.808	0.27	9.17	-0.01	7.56
119.840	0.27	9.17	-0.01	7.56
119.872	0.21	9.11	-0.01	7.56
119.904	0.21	9.11	-0.05	7.53
119.936	0.21	9.11	-0.05	7.53
119.968	0.20	9.10	-0.05	7.53
120.000	0.20	9.10	0.05	7.62
120.032	0.20	9.10	0.05	7.62
120.064	0.16	9.07	0.05	7.62
120.096	0.16	9.07	-0.06	7.52
120.128	0.16	9.07	-0.06	7.52
120.160	0.16	9.06	-0.06	7.52
120.192	0.16	9.06	0.03	7.60
120.224	0.16	9.06	0.03	7.60
120.256	0.17	9.08	0.03	7.60
120.288	0.17	9.08	-0.01	7.56
120.320	0.17	9.08	-0.01	7.56
120.352	0.14	9.04	-0.01	7.56
120.384	0.14	9.04	-0.05	7.52
120.416	0.14	9.04	-0.05	7.52
120.448	0.18	9.08	-0.05	7.52
120.480	0.18	9.08	0.05	7.62
120.512	0.18	9.08	0.05	7.62
120.544	0.15	9.05	0.05	7.62
120.576	0.15	9.05	-0.06	7.52
120.608	0.15	9.05	-0.06	7.52
120.640	0.16	9.07	-0.06	7.52
120.672	0.16	9.07	0.03	7.61
120.704	0.16	9.07	0.03	7.61
120.736	0.19	9.09	0.03	7.61
120.768	0.19	9.09	-0.01	7.56
120.800	0.19	9.09	-0.01	7.56
120.832	0.16	9.06	-0.01	7.56
120.864	0.16	9.06	-0.05	7.53
120.896	0.16	9.06	-0.05	7.53
120.928	0.21	9.11	-0.05	7.53
120.960	0.21	9.11	0.05	7.62
120.992	0.21	9.11	0.05	7.62
121.024	0.17	9.07	0.05	7.62
121.056	0.17	9.07	-0.06	7.52
121.088	0.17	9.07	-0.06	7.52
121.120	0.21	9.11	-0.06	7.52
121.152	0.21	9.11	0.03	7.61
121.184	0.21	9.11	0.03	7.61
121.216	0.20	9.10	0.03	7.61
121.248	0.20	9.10	-0.02	7.56
121.280	0.20	9.10	-0.02	7.56
121.312	0.16	9.07	-0.02	7.56
121.344	0.16	9.07	-0.05	7.53
121.376	0.16	9.07	-0.05	7.53
121.408	0.20	9.10	-0.05	7.53
121.440	0.20	9.10	0.05	7.62
121.472	0.20	9.10	0.05	7.62
121.504	0.14	9.04	0.05	7.62
121.536	0.14	9.04	-0.06	7.52
121.568	0.14	9.04	-0.06	7.52
121.600	0.14	9.04	-0.06	7.52
121.632	0.14	9.04	0.03	7.60
121.664	0.14	9.04	0.03	7.60
121.696	0.15	9.05	0.03	7.60
121.728	0.15	9.05	-0.02	7.55
121.760	0.15	9.05	-0.02	7.55
121.792	0.15	9.05	-0.02	7.55
121.824	0.15	9.05	-0.04	7.53
121.856	0.15	9.05	-0.04	7.53
121.888	0.24	9.14	-0.04	7.53
121.920	0.24	9.14	0.05	7.62
121.952	0.24	9.14	0.05	7.62
121.984	0.16	9.06	0.05	7.62
122.016	0.16	9.06	-0.06	7.52
122.048	0.16	9.06	-0.06	7.52
122.080	0.20	9.10	-0.06	7.52
122.112	0.20	9.10	0.03	7.60
122.144	0.20	9.10	0.03	7.60
122.176	0.21	9.11	0.03	7.60
122.208	0.21	9.11	-0.02	7.56
122.240	0.21	9.11	-0.02	7.56
122.272	0.18	9.08	-0.02	7.56
122.304	0.18	9.08	-0.04	7.53
122.336	0.18	9.08	-0.04	7.53
122.368	0.21	9.12	-0.04	7.53
122.400	0.21	9.12	0.05	7.62
122.432	0.21	9.12	0.05	7.62
122.464	0.18	9.08	0.05	7.62
122.496	0.18	9.08	-0.06	7.52
122.528	0.18	9.08	-0.06	7.52
122.560	0.16	9.07	-0.06	7.52
122.592	0.16	9.07	0.03	7.60
122.624	0.16	9.07	0.03	7.60
122.656	0.19	9.09	0.03	7.60
122.688	0.19	9.09	-0.02	7.56
122.720	0.19	9.09	-0.02	7.56
122.752	0.16	9.06	-0.02	7.56
122.784	0.16	9.06	-0.05	7.53
122.816	0.16	9.06	-0.05	7.53
122.848	0.18	9.08	-0.05	7.53
122.880	0.18	9.08	0.05	7.62
122.912	0.18	9.08	0.05	7.62
122.944	0.10	9.00	0.05	7.62
122.976	0.10	9.00	-0.06	7.52
123.008	0.10	9.00	-0.06	7.52
123.040	0.14	9.04	-0.06	7.52
123.072	0.14	9.04	0.03	7.60
123.104	0.14	9.04	0.03	7.60
123.136	0.16	9.06	0.03	7.60
123.168	0.16	9.06	-0.02	7.55
123.200	0.16	9.06	-0.02	7.55
123.232	0.12	9.02	-0.02	7.55
123.264	0.12	9.02	-0.04	7.53
123.296	0.12	9.02	-0.04	7.53
123.328	0.16	9.07	-0.04	7.53
123.360	0.16	9.07	0.05	7.63
123.392	0.16	9.07	0.05	7.63
123.424	0.12	9.02	0.05	7.63
123.456	0.12	9.02	-0.06	7.51
123.488	0.12	9.02	-0.06	7.51
123.520	0.13	9.03	-0.06	7.51
123.552	0.13	9.03	0.03	7.60
123.584	0.13	9.03	0.03	7.60
123.616	0.14	9.04	0.03	7.60
123.648	0.14	9.04	-0.01	7.56
123.680	0.14	9.04	-0.01	7.56
123.712	0.11	9.01	-0.01	7.56
123.744	0.11	9.01	-0.05	7.53
123.776	0.11	9.01	-0.05	7.53
123.808	0.16	9.06	-0.05	7.53
123.840	0.16	9.06	0.05	7.63
123.872	0.16	9.06	0.05	7.63
123.904	0.10	9.00	0.05	7.63
123.936	0.10	9.00	-0.06	7.52
123.968	0.10	9.00	-0.06	7.52
124.000	0.13	9.03	-0.06	7.52
124.032	0.13	9.03	0.03	7.61
124.064	0.13	9.03	0.03	7.61
124.096	0.15	9.05	0.03	7.61
124.128	0.15	9.05	-0.02	7.56
124.160	0.15	9.05	-0.02	7.56
124.192	0.12	9.02	-0.02	7.56
124.224	0.12	9.02	-0.05	7.53
124.256	0.12	9.02	-0.05	7.53
124.288	0.16	9.06	-0.05	7.53
124.320	0.16	9.06	0.05	7.62
124.352	0.16	9.06	0.05	7.62
124.384	0.12	9.02	0.05	7.62
124.416	0.12	9.02	-0.06	7.51
124.448	0.12	9.02	-0.06	7.51
124.480	0.14	9.04	-0.06	7.51
124.512	0.14	9.04	0.03	7.60
124.544	0.14	9.04	0.03	7.60
124.576	0.14	9.04	0.03	7.60
124.608	0.14	9.04	-0.01	7.56
124.640	0.14	9.04	-0.01	7.56
124.672	0.11	9.01	-0.01	7.56
124.704	0.11	9.01	-0.05	7.53
124.736	0.11	9.01	-0.05	7.53
124.768	0.16	9.06	-0.05	7.53
124.800	0.16	9.06	0.05	7.63
124.832	0.16	9.06	0.05	7.63
124.864	0.13	9.03	0.05	7.63
124.896	0.13	9.03	-0.06	7.52
124.928	0.13	9.03	-0.06	7.52
124.960	0.17	9.07	-0.06	7.52
124.992	0.17	9.07	0.03	7.60
125.024	0.17	9.07	0.03	7.60
125.056	0.17	9.07	0.03	7.60
125.088	0.17	9.07	-0.01	7.56
125.120	0.17	9.07	-0.01	7.56
125.152	0.12	9.02	-0.01	7.56
125.184	0.12	9.02	-0.05	7.53
125.216	0.12	9.02	-0.05	7.53
125.248	0.18	9.08	-0.05	7.53
125.280	0.18	9.08	0.05	7.62
125.312	0.18	9.08	0.05	7.62
125.344	0.11	9.01	0.05	7.62
125.376	0.11	9.01	-0.06	7.52
125.408	0.11	9.01	-0.06	7.52
125.440	0.20	9.10	-0.06	7.52
125.472	0.20	9.10	0.03	7.60
125.504	0.20	9.10	0.03	7.60
125.536	0.24	9.14	0.03	7.60
125.568	0.24	9.14	-0.01	7.57
125.600	0.24	9.14	-0.01	7.57
125.632	0.25	9.15	-0.01	7.57
125.664	0.25	9.15	-0.05	7.52
125.696	0.25	9.15	-0.05	7.52
125.728	0.28	9.18	-0.05	7.52
125.760	0.28	9.18	0.05	7.63
125.792	0.28	9.18	0.05	7.63
125.824	0.16	9.07	0.05	7.63
125.856	0.16	9.07	-0.06	7.52
125.888	0.16	9.07	-0.06	7.52
125.920	0.15	9.05	-0.06	7.52
125.952	0.15	9.05	0.03	7.60
125.984	0.15	9.05	0.03	7.60
126.016	0.29	9.19	0.03	7.60
126.048	0.29	9.19	-0.01	7.57
126.080	0.29	9.19	-0.01	7.57
126.112	0.30	9.20	-0.01	7.57
126.144	0.30	9.20	-0.06	7.52
126.176	0.30	9.20	-0.06	7.52
126.208	0.35	9.25	-0.06	7.52
126.240	0.35	9.25	0.05	7.62
126.272	0.35	9.25	0.05	7.62
126.304	0.30	9.20	0.05	7.62
126.336	0.30	9.20	-0.05	7.52
126.368	0.30	9.20	-0.05	7.52
126.400	0.32	9.22	-0.05	7.52
126.432	0.32	9.22	0.02	7.60
126.464	0.32	9.22	0.02	7.60
126.496	0.32	9.22	0.02	7.60
126.528	0.32	9.22	-0.00	7.57
126.560	0.32	9.22	-0.00	7.57
126.592	0.30	9.20	-0.00	7.57
126.624	0.30	9.20	-0.06	7.52
126.656	0.30	9.20	-0.06	7.52
126.688	0.31	9.21	-0.06	7.52
126.720	0.31	9.21	0.05	7.62
126.752	0.31	9.21	0.05	7.62
126.784	0.26	9.16	0.05	7.62
126.816	0.26	9.16	-0.05	7.52
126.848	0.26	9.16	-0.05	7.52
126.880	0.29	9.19	-0.05	7.52
126.912	0.29	9.19	0.02	7.60
126.944	0.29	9.19	0.02	7.60
126.976	0.31	9.22	0.02	7.60
127.008	0.31	9.22	0.00	7.58
127.040	0.31	9.22	0.00	7.58
127.072	0.29	9.19	0.00	7.58
127.104	0.29	9.19	-0.06	7.52
127.136	0.29	9.19	-0.06	7.52
127.168	0.29	9.19	-0.06	7.52
127.200	0.29	9.19	0.05	7.63
127.232	0.29	9.19	0.05	7.63
127.264	0.27	9.17	0.05	7.63
127.296	0.27	9.17	-0.05	7.52
127.328	0.27	9.17	-0.05	7.52
127.360	0.27	9.17	-0.05	7.52
127.392	0.27	9.17	0.02	7.60
127.424	0.27	9.17	0.02	7.60
127.456	0.27	9.17	0.02	7.60
127.488	0.27	9.17	0.01	7.59
127.520	0.27	9.17	0.01	7.59
127.552	0.22	9.13	0.01	7.59
127.584	0.22	9.13	-0.06	7.52
127.616	0.22	9.13	-0.06	7.52
127.648	0.29	9.19	-0.06	7.52
127.680	0.29	9.19	0.05	7.63
127.712	0.29	9.19	0.05	7.63
127.744	0.24	9.14	0.05	7.63
127.776	0.24	9.14	-0.05	7.53
127.808	0.24	9.14	-0.05	7.53
127.840	0.27	9.18	-0.05	7.53
127.872	0.27	9.18	0.02	7.60
127.904	0.27	9.18	0.02	7.60
127.936	0.27	9.17	0.02	7.60
127.968	0.27	9.17	0.01	7.59
128.000	0.27	9.17	0.01	7.59
128.032	0.23	9.13	0.01	7.59
128.064	0.23	9.13	-0.06	7.52
128.096	0.23	9.13	-0.06	7.52
128.128	0.25	9.15	-0.06	7.52
128.160	0.25	9.15	0.05	7.62
128.192	0.25	9.15	0.05	7.62
128.224	0.25	9.15	0.05	7.62
128.256	0.25	9.15	-0.05	7.53
128.288	0.25	9.15	-0.05	7.53
128.320	0.25	9.15	-0.05	7.53
128.352	0.25	9.15	0.02	7.59
128.384	0.25	9.15	0.02	7.59
128.416	0.29	9.19	0.02	7.59
128.448	0.29	9.19	0.02	7.60
128.480	0.29	9.19	0.02	7.60
128.512	0.25	9.15	0.02	7.60
128.544	0.25	9.15	-0.06	7.51
128.576	0.25	9.15	-0.06	7.51
128.608	0.30	9.20	-0.06	7.51
128.640	0.30	9.20	0.05	7.63
128.672	0.30	9.20	0.05	7.63
128.704	0.30	9.20	0.05	7.63
128.736	0.30	9.20	-0.05	7.53
128.768	0.30	9.20	-0.05	7.53
128.800	0.28	9.18	-0.05	7.53
128.832	0.28	9.18	0.01	7.59
128.864	0.28	9.18	0.01	7.59
128.896	0.26	9.16	0.01	7.59
128.928	0.26	9.16	0.03	7.60
128.960	0.26	9.16	0.03	7.60
128.992	0.19	9.09	0.03	7.60
129.024	0.19	9.09	-0.06	7.52
129.056	0.19	9.09	-0.06	7.52
129.088	0.19	9.09	-0.06	7.52
129.120	0.19	9.09	0.05	7.63
129.152	0.19	9.09	0.05	7.63
129.184	0.23	9.13	0.05	7.63
129.216	0.23	9.13	-0.05	7.53
129.248	0.23	9.13	-0.05	7.53
129.280	0.22	9.12	-0.05	7.53
129.312	0.22	9.12	0.01	7.58
129.344	0.22	9.12	0.01	7.58
129.376	0.26	9.16	0.01	7.58
129.408	0.26	9.16	0.04	7.61
129.440	0.26	9.16	0.04	7.61
129.472	0.19	9.09	0.04	7.61
129.504	0.19	9.09	-0.06	7.51
129.536	0.19	9.09	-0.06	7.51
129.568	0.25	9.15	-0.06	7.51
129.600	0.25	9.15	0.05	7.62
129.632	0.25	9.15	0.05	7.62
129.664	0.25	9.15	0.05	7.62
129.696	0.25	9.15	-0.04	7.54
129.728	0.25	9.15	-0.04	7.54
129.760	0.25	9.15	-0.04	7.54
129.792	0.25	9.15	-0.00	7.57
129.824	0.25	9.15	-0.00	7.57
129.856	0.25	9.15	-0.00	7.57
129.888	0.25	9.15	0.04	7.62
129.920	0.25	9.15	0.04	7.62
129.952	0.18	9.08	0.04	7.62
129.984	0.18	9.08	-0.06	7.52
130.016	0.18	9.08	-0.06	7.52
130.048	0.21	9.11	-0.06	7.52
130.080	0.21	9.11	0.04	7.62
130.112	0.21	9.11	0.04	7.62
130.144	0.22	9.12	0.04	7.62
130.176	0.22	9.12	-0.04	7.54
130.208	0.22	9.12	-0.04	7.54
130.240	0.20	9.10	-0.04	7.54
130.272	0.20	9.10	-0.01	7.57
130.304	0.20	9.10	-0.01	7.57
130.336	0.25	9.15	-0.01	7.57
130.368	0.25	9.15	0.04	7.62
130.400	0.25	9.15	0.04	7.62
130.432	0.20	9.10	0.04	7.62
130.464	0.20	9.10	-0.06	7.52
130.496	0.20	9.10	-0.06	7.52
130.528	0.25	9.15	-0.06	7.52
130.560	0.25	9.15	0.04	7.62
130.592	0.25	9.15	0.04	7.62
130.624	0.25	9.15	0.04	7.62
130.656	0.25	9.15	-0.04	7.54
130.688	0.25	9.15	-0.04	7.54
130.720	0.27	9.17	-0.04	7.54
130.752	0.27	9.17	-0.01	7.56
130.784	0.27	9.17	-0.01	7.56
130.816	0.28	9.18	-0.01	7.56
130.848	0.28	9.18	0.05	7.62
130.880	0.28	9.18	0.05	7.62
130.912	0.21	9.12	0.05	7.62
130.944	0.21	9.12	-0.07	7.51
130.976	0.21	9.12	-0.07	7.51
131.008	0.25	9.15	-0.07	7.51
131.040	0.25	9.15	0.04	7.62
131.072	0.25	9.15	0.04	7.62
131.104	0.24	9.14	0.04	7.62
131.136	0.24	9.14	-0.03	7.54
131.168	0.24	9.14	-0.03	7.54
131.200	0.23	9.13	-0.03	7.54
131.232	0.23	9.13	-0.03	7.55
131.264	0.23	9.13	-0.03	7.55
131.296	0.26	9.16	-0.03	7.55
131.328	0.26	9.16	0.05	7.62
131.360	0.26	9.16	0.05	7.62
131.392	0.22	9.12	0.05	7.62
131.424	0.22	9.12	-0.06	7.51
131.456	0.22	9.12	-0.06	7.51
131.488	0.23	9.13	-0.06	7.51
131.520	0.23	9.13	0.04	7.62
131.552	0.23	9.13	0.04	7.62
131.584	0.23	9.13	0.04	7.62
131.616	0.23	9.13	-0.03	7.54
131.648	0.23	9.13	-0.03	7.54
131.680	0.20	9.10	-0.03	7.54
131.712	0.20	9.10	-0.04	7.54
131.744	0.20	9.10	-0.04	7.54
131.776	0.26	9.16	-0.04	7.54
131.808	0.26	9.16	0.05	7.62
131.840	0.26	9.16	0.05	7.62
131.872	0.23	9.13	0.05	7.62
131.904	0.23	9.13	-0.06	7.51
131.936	0.23	9.13	-0.06	7.51
131.968	0.22	9.13	-0.06	7.51
132.000	0.22	9.13	0.03	7.61
132.032	0.22	9.13	0.03	7.61
132.064	0.23	9.13	0.03	7.61
132.096	0.23	9.13	-0.03	7.55
132.128	0.23	9.13	-0.03	7.55
132.160	0.24	9.14	-0.03	7.55
