Tempo(s)    P0(KPa) P0+Coluna(KPa)  P1(KPa) P1+Coluna(KPa)
0.003	-2.22	-2.22	-2.22	-2.22
0.030	-2.22	-2.22	-2.22	-2.22
0.060	12.48	12.48	-2.22	-2.22
0.090	12.48	12.48	7.55	7.55
0.120	12.48	12.48	7.55	7.55
0.149	12.63	12.63	7.55	7.55
0.179	12.63	12.63	7.61	7.61
0.209	12.63	12.63	7.61	7.61
0.239	12.64	12.64	7.61	7.61
0.269	12.64	12.64	7.53	7.53
0.298	12.64	12.64	7.53	7.53
0.328	14.26	14.26	7.53	7.53
0.358	14.26	14.26	7.62	7.62
0.388	14.26	14.26	7.62	7.62
0.417	12.92	12.92	7.62	7.62
0.447	12.92	12.92	7.57	7.57
0.477	12.92	12.92	7.57	7.57
0.507	12.71	12.71	7.57	7.57
0.536	12.71	12.71	7.54	7.54
0.566	12.71	12.71	7.54	7.54
0.596	12.70	12.70	7.54	7.54
0.626	-0.00	12.70	0.10	7.64
0.655	-0.00	12.70	0.10	7.64
0.685	0.03	12.73	0.10	7.64
0.715	0.03	12.73	-0.01	7.53
0.745	0.03	12.73	-0.01	7.53
0.774	0.12	12.82	-0.01	7.53
0.804	0.12	12.82	0.08	7.62
0.834	0.12	12.82	0.08	7.62
0.864	0.22	12.92	0.08	7.62
0.893	0.22	12.92	0.03	7.57
0.923	0.22	12.92	0.03	7.57
0.953	-0.30	12.40	0.03	7.57
0.983	-0.30	12.40	0.00	7.54
1.013	-0.30	12.40	0.00	7.54
1.042	-0.32	12.38	0.00	7.54
1.072	-0.32	12.38	0.10	7.64
1.102	-0.32	12.38	0.10	7.64
1.131	-0.31	12.39	0.10	7.64
1.161	-0.31	12.39	-0.01	7.53
1.191	-0.31	12.39	-0.01	7.53
1.221	-0.32	12.38	-0.01	7.53
1.251	-0.32	12.38	0.08	7.62
1.280	-0.32	12.38	0.08	7.62
1.310	-0.33	12.38	0.08	7.62
1.340	-0.33	12.38	0.03	7.57
1.370	-0.33	12.38	0.03	7.57
1.399	-0.32	12.38	0.03	7.57
1.429	-0.32	12.38	0.00	7.54
1.459	-0.32	12.38	0.00	7.54
1.489	-0.30	12.40	0.00	7.54
1.518	-0.30	12.40	0.10	7.64
1.548	-0.30	12.40	0.10	7.64
1.578	-0.29	12.41	0.10	7.64
1.608	-0.29	12.41	-0.02	7.53
1.637	-0.29	12.41	-0.02	7.53
1.667	-0.30	12.40	-0.02	7.53
1.697	-0.30	12.40	0.08	7.62
1.727	-0.30	12.40	0.08	7.62
1.757	-0.29	12.41	0.08	7.62
1.786	-0.29	12.41	0.03	7.57
1.816	-0.29	12.41	0.03	7.57
1.846	-0.24	12.46	0.03	7.57
1.876	-0.24	12.46	-0.00	7.54
1.905	-0.24	12.46	-0.00	7.54
1.935	-0.21	12.49	-0.00	7.54
1.965	-0.21	12.49	0.10	7.64
1.995	-0.21	12.49	0.10	7.64
2.025	-0.16	12.54	0.10	7.64
2.054	-0.16	12.54	-0.01	7.53
2.084	-0.16	12.54	-0.01	7.53
2.114	-0.06	12.65	-0.01	7.53
2.144	-0.06	12.65	0.07	7.62
2.173	-0.06	12.65	0.07	7.62
2.203	0.07	12.77	0.07	7.62
2.233	0.07	12.77	0.04	7.58
2.263	0.07	12.77	0.04	7.58
2.293	0.17	12.87	0.04	7.58
2.322	0.17	12.87	-0.01	7.54
2.352	0.17	12.87	-0.01	7.54
2.382	0.27	12.98	-0.01	7.54
2.412	0.27	12.98	0.10	7.64
2.441	0.27	12.98	0.10	7.64
2.471	0.42	13.12	0.10	7.64
2.501	0.42	13.12	-0.01	7.53
2.531	0.42	13.12	-0.01	7.53
2.561	0.50	13.20	-0.01	7.53
2.590	0.50	13.20	0.08	7.62
2.620	0.50	13.20	0.08	7.62
2.650	-0.29	12.42	0.08	7.62
2.680	-0.29	12.42	0.04	7.58
2.709	-0.29	12.42	0.04	7.58
2.739	-0.32	12.38	0.04	7.58
2.769	-0.32	12.38	-0.01	7.54
2.799	-0.32	12.38	-0.01	7.54
2.829	-0.37	12.33	-0.01	7.54
2.858	-0.37	12.33	0.10	7.64
2.888	-0.37	12.33	0.10	7.64
2.918	-0.38	12.32	0.10	7.64
2.948	-0.38	12.32	-0.01	7.53
2.977	-0.38	12.32	-0.01	7.53
3.007	-0.39	12.32	-0.01	7.53
3.037	-0.39	12.32	0.08	7.62
3.067	-0.39	12.32	0.08	7.62
3.097	-0.38	12.32	0.08	7.62
3.126	-0.38	12.32	0.04	7.58
3.156	-0.38	12.32	0.04	7.58
3.186	-0.38	12.32	0.04	7.58
3.216	-0.38	12.32	-0.01	7.53
3.245	-0.38	12.32	-0.01	7.53
3.275	-0.37	12.33	-0.01	7.53
3.305	-0.37	12.33	0.10	7.64
3.335	-0.37	12.33	0.10	7.64
3.365	-0.37	12.33	0.10	7.64
3.394	-0.37	12.33	-0.01	7.53
3.424	-0.37	12.33	-0.01	7.53
3.454	-0.36	12.34	-0.01	7.53
3.484	-0.36	12.34	0.07	7.62
3.513	-0.36	12.34	0.07	7.62
3.543	-0.36	12.34	0.07	7.62
3.573	-0.36	12.34	0.04	7.59
3.603	-0.36	12.34	0.04	7.59
3.632	-0.37	12.33	0.04	7.59
3.662	-0.37	12.33	-0.01	7.53
3.692	-0.37	12.33	-0.01	7.53
3.722	-0.36	12.34	-0.01	7.53
3.752	-0.36	12.34	0.10	7.64
3.781	-0.36	12.34	0.10	7.64
3.811	-0.36	12.34	0.10	7.64
3.841	-0.36	12.34	-0.01	7.53
3.871	-0.36	12.34	-0.01	7.53
3.900	-0.35	12.35	-0.01	7.53
3.930	-0.35	12.35	0.07	7.61
3.960	-0.35	12.35	0.07	7.61
3.990	-0.36	12.34	0.07	7.61
4.020	-0.36	12.34	0.04	7.58
4.049	-0.36	12.34	0.04	7.58
4.079	-0.43	12.28	0.04	7.58
4.109	-0.43	12.28	-0.01	7.53
4.139	-0.43	12.28	-0.01	7.53
4.168	-0.43	12.27	-0.01	7.53
4.198	-0.43	12.27	0.10	7.64
4.228	-0.43	12.27	0.10	7.64
4.258	-0.42	12.28	0.10	7.64
4.288	-0.42	12.28	-0.01	7.54
4.317	-0.42	12.28	-0.01	7.54
4.347	-0.42	12.28	-0.01	7.54
4.377	-0.42	12.28	0.07	7.61
4.407	-0.42	12.28	0.07	7.61
4.436	5.60	18.31	0.07	7.61
4.466	5.60	18.31	0.05	7.59
4.496	5.60	18.31	0.05	7.59
4.526	17.86	30.57	0.05	7.59
4.556	17.86	30.57	-0.01	7.53
4.585	17.86	30.57	-0.01	7.53
4.615	20.24	32.94	-0.01	7.53
4.645	20.24	32.94	0.10	7.64
4.675	20.24	32.94	0.10	7.64
4.704	19.15	31.85	0.10	7.64
4.734	19.15	31.85	-0.00	7.54
4.764	19.15	31.85	-0.00	7.54
4.794	18.36	31.07	-0.00	7.54
4.823	18.36	31.07	0.07	7.62
4.853	18.36	31.07	0.07	7.62
4.883	18.10	30.80	0.07	7.62
4.913	18.10	30.80	0.05	7.59
4.943	18.10	30.80	0.05	7.59
4.972	18.04	30.75	0.05	7.59
5.002	18.04	30.75	-0.01	7.53
5.032	18.04	30.75	-0.01	7.53
5.062	18.08	30.78	-0.01	7.53
5.091	18.08	30.78	0.10	7.64
5.121	18.08	30.78	0.10	7.64
5.151	18.10	30.80	0.10	7.64
5.181	18.10	30.80	-0.01	7.54
5.210	18.10	30.80	-0.01	7.54
5.240	18.20	30.90	-0.01	7.54
5.270	18.20	30.90	0.08	7.62
5.300	18.20	30.90	0.08	7.62
5.330	18.22	30.92	0.08	7.62
5.359	18.22	30.92	0.05	7.59
5.389	18.22	30.92	0.05	7.59
5.419	18.18	30.88	0.05	7.59
5.449	18.18	30.88	-0.01	7.53
5.478	18.18	30.88	-0.01	7.53
5.508	18.18	30.88	-0.01	7.53
5.538	18.18	30.88	0.10	7.64
5.568	18.18	30.88	0.10	7.64
5.597	18.19	30.89	0.10	7.64
5.627	18.19	30.89	-0.00	7.54
5.657	18.19	30.89	-0.00	7.54
5.687	18.25	30.96	-0.00	7.54
5.717	18.25	30.96	0.07	7.62
5.746	18.25	30.96	0.07	7.62
5.776	18.20	30.90	0.07	7.62
5.806	18.20	30.90	0.06	7.60
5.836	18.20	30.90	0.06	7.60
5.865	18.13	30.84	0.06	7.60
5.895	18.13	30.84	-0.01	7.53
5.925	18.13	30.84	-0.01	7.53
5.955	18.08	30.79	-0.01	7.53
5.984	18.08	30.79	0.10	7.65
6.014	18.08	30.79	0.10	7.65
6.044	18.03	30.73	0.10	7.65
6.074	18.03	30.73	0.00	7.54
6.104	18.03	30.73	0.00	7.54
6.133	18.16	30.86	0.00	7.54
6.163	18.16	30.86	0.07	7.62
6.193	18.16	30.86	0.07	7.62
6.222	18.21	30.91	0.07	7.62
6.252	18.21	30.91	0.06	7.60
6.282	18.21	30.91	0.06	7.60
6.312	18.18	30.88	0.06	7.60
6.342	18.18	30.88	-0.01	7.53
6.371	18.18	30.88	-0.01	7.53
6.401	18.17	30.87	-0.01	7.53
6.431	18.17	30.87	0.10	7.64
6.461	18.17	30.87	0.10	7.64
6.490	18.20	30.91	0.10	7.64
6.520	18.20	30.91	0.00	7.54
6.550	18.20	30.91	0.00	7.54
6.580	18.19	30.89	0.00	7.54
6.609	18.19	30.89	0.07	7.61
6.639	18.19	30.89	0.07	7.61
6.669	18.26	30.96	0.07	7.61
6.699	18.26	30.96	0.07	7.61
6.728	18.26	30.96	0.07	7.61
6.758	18.23	30.94	0.07	7.61
6.788	18.23	30.94	-0.01	7.53
6.818	18.23	30.94	-0.01	7.53
6.848	18.23	30.94	-0.01	7.53
6.877	18.23	30.94	0.10	7.65
6.907	18.23	30.94	0.10	7.65
6.937	18.23	30.93	0.10	7.65
6.967	18.23	30.93	0.00	7.54
6.996	18.23	30.93	0.00	7.54
7.026	18.25	30.96	0.00	7.54
7.056	18.25	30.96	0.07	7.61
7.086	18.25	30.96	0.07	7.61
7.115	18.35	31.05	0.07	7.61
7.145	18.35	31.05	0.07	7.61
7.175	18.35	31.05	0.07	7.61
7.205	18.33	31.03	0.07	7.61
7.235	18.33	31.03	-0.01	7.53
7.264	18.33	31.03	-0.01	7.53
7.294	18.31	31.01	-0.01	7.53
7.324	18.31	31.01	0.11	7.65
7.354	18.31	31.01	0.11	7.65
7.383	18.32	31.02	0.11	7.65
7.413	18.32	31.02	0.00	7.55
7.443	18.32	31.02	0.00	7.55
7.473	18.28	30.98	0.00	7.55
7.503	18.28	30.98	0.06	7.61
7.532	18.28	30.98	0.06	7.61
7.562	18.28	30.98	0.06	7.61
7.592	18.28	30.98	0.07	7.62
7.622	18.28	30.98	0.07	7.62
7.651	18.29	31.00	0.07	7.62
7.681	18.29	31.00	-0.01	7.53
7.711	18.29	31.00	-0.01	7.53
7.741	18.25	30.95	-0.01	7.53
7.770	18.25	30.95	0.10	7.65
7.800	18.25	30.95	0.10	7.65
7.830	18.24	30.94	0.10	7.65
7.860	18.24	30.94	0.01	7.55
7.890	18.24	30.94	0.01	7.55
7.919	18.24	30.94	0.01	7.55
7.949	18.24	30.94	0.07	7.61
7.979	18.24	30.94	0.07	7.61
8.009	18.32	31.03	0.07	7.61
8.038	18.32	31.03	0.08	7.62
8.068	18.32	31.03	0.08	7.62
8.098	18.39	31.09	0.08	7.62
8.128	18.39	31.09	-0.02	7.53
8.157	18.39	31.09	-0.02	7.53
8.187	18.39	31.09	-0.02	7.53
8.217	18.39	31.09	0.10	7.64
8.247	18.39	31.09	0.10	7.64
8.277	18.39	31.09	0.10	7.64
8.306	18.39	31.09	0.01	7.55
8.336	18.39	31.09	0.01	7.55
8.366	18.37	31.08	0.01	7.55
8.396	18.37	31.08	0.06	7.60
8.425	18.37	31.08	0.06	7.60
8.455	18.37	31.07	0.06	7.60
8.485	18.37	31.07	0.08	7.62
8.515	18.37	31.07	0.08	7.62
8.544	18.34	31.05	0.08	7.62
8.574	18.34	31.05	-0.01	7.53
8.604	18.34	31.05	-0.01	7.53
8.634	18.34	31.04	-0.01	7.53
8.664	18.34	31.04	0.10	7.64
8.693	18.34	31.04	0.10	7.64
8.723	18.30	31.00	0.10	7.64
8.753	18.30	31.00	0.01	7.55
8.783	18.30	31.00	0.01	7.55
8.812	18.30	31.00	0.01	7.55
8.842	18.30	31.00	0.06	7.60
8.872	18.30	31.00	0.06	7.60
8.902	18.30	31.00	0.06	7.60
8.931	18.30	31.00	0.09	7.63
8.961	18.30	31.00	0.09	7.63
8.991	18.38	31.09	0.09	7.63
9.021	18.38	31.09	-0.01	7.53
9.051	18.38	31.09	-0.01	7.53
9.080	18.44	31.14	-0.01	7.53
9.110	18.44	31.14	0.10	7.64
9.140	18.44	31.14	0.10	7.64
9.170	18.50	31.20	0.10	7.64
9.199	18.50	31.20	0.01	7.55
9.229	18.50	31.20	0.01	7.55
9.259	18.52	31.22	0.01	7.55
9.289	18.52	31.22	0.06	7.60
9.318	18.52	31.22	0.06	7.60
9.348	18.51	31.21	0.06	7.60
9.378	18.51	31.21	0.09	7.63
9.408	18.51	31.21	0.09	7.63
9.438	18.48	31.18	0.09	7.63
9.467	18.48	31.18	-0.02	7.53
9.497	18.48	31.18	-0.02	7.53
9.527	18.49	31.19	-0.02	7.53
9.557	18.49	31.19	0.10	7.64
9.586	18.49	31.19	0.10	7.64
9.616	18.43	31.13	0.10	7.64
9.646	18.43	31.13	0.01	7.55
9.676	18.43	31.13	0.01	7.55
9.705	18.37	31.07	0.01	7.55
9.735	18.37	31.07	0.05	7.60
9.765	18.37	31.07	0.05	7.60
9.795	18.38	31.09	0.05	7.60
9.825	18.38	31.09	0.09	7.63
9.854	18.38	31.09	0.09	7.63
9.884	18.44	31.15	0.09	7.63
9.914	18.44	31.15	-0.01	7.53
9.944	18.44	31.15	-0.01	7.53
9.973	18.47	31.18	-0.01	7.53
10.003	18.47	31.18	0.10	7.64
10.033	18.47	31.18	0.10	7.64
10.063	18.42	31.12	0.10	7.64
10.092	18.42	31.12	0.01	7.55
10.122	18.42	31.12	0.01	7.55
10.152	18.57	31.27	0.01	7.55
10.182	18.57	31.27	0.05	7.60
10.212	18.57	31.27	0.05	7.60
10.241	18.56	31.26	0.05	7.60
10.271	18.56	31.26	0.09	7.63
10.301	18.56	31.26	0.09	7.63
10.331	18.53	31.23	0.09	7.63
10.360	18.53	31.23	-0.02	7.53
10.390	18.53	31.23	-0.02	7.53
10.420	18.54	31.24	-0.02	7.53
10.450	18.54	31.24	0.10	7.64
10.479	18.54	31.24	0.10	7.64
10.509	18.50	31.20	0.10	7.64
10.539	18.50	31.20	0.01	7.55
10.569	18.50	31.20	0.01	7.55
10.598	18.51	31.21	0.01	7.55
10.628	18.51	31.21	0.05	7.59
10.658	18.51	31.21	0.05	7.59
10.688	18.49	31.19	0.05	7.59
10.717	18.49	31.19	0.09	7.63
10.747	18.49	31.19	0.09	7.63
10.777	18.50	31.20	0.09	7.63
10.807	18.50	31.20	-0.02	7.53
10.836	18.50	31.20	-0.02	7.53
10.866	18.63	31.33	-0.02	7.53
10.896	18.63	31.33	0.10	7.64
10.926	18.63	31.33	0.10	7.64
10.956	18.68	31.39	0.10	7.64
10.985	18.68	31.39	0.01	7.55
11.015	18.68	31.39	0.01	7.55
11.045	18.38	31.08	0.01	7.55
11.075	18.38	31.08	0.04	7.59
11.104	18.38	31.08	0.04	7.59
11.134	18.38	31.08	0.04	7.59
11.164	18.38	31.08	0.09	7.64
11.194	18.38	31.08	0.09	7.64
11.223	18.35	31.05	0.09	7.64
11.253	18.35	31.05	-0.01	7.53
11.283	18.35	31.05	-0.01	7.53
11.313	18.27	30.97	-0.01	7.53
11.342	18.27	30.97	0.09	7.64
11.372	18.27	30.97	0.09	7.64
11.402	18.41	31.12	0.09	7.64
11.432	18.41	31.12	0.01	7.55
11.461	18.41	31.12	0.01	7.55
11.491	18.37	31.08	0.01	7.55
11.521	18.37	31.08	0.04	7.58
11.551	18.37	31.08	0.04	7.58
11.581	18.32	31.02	0.04	7.58
11.610	18.32	31.02	0.10	7.64
11.640	18.32	31.02	0.10	7.64
11.670	18.35	31.06	0.10	7.64
11.700	18.35	31.06	-0.01	7.53
11.729	18.35	31.06	-0.01	7.53
11.759	18.34	31.04	-0.01	7.53
11.789	18.34	31.04	0.09	7.63
11.819	18.34	31.04	0.09	7.63
11.848	18.40	31.10	0.09	7.63
11.878	18.40	31.10	0.01	7.55
11.908	18.40	31.10	0.01	7.55
11.938	18.46	31.16	0.01	7.55
11.967	18.46	31.16	0.04	7.58
11.997	18.46	31.16	0.04	7.58
12.027	18.45	31.15	0.04	7.58
12.057	18.45	31.15	0.10	7.64
12.086	18.45	31.15	0.10	7.64
12.116	18.41	31.11	0.10	7.64
12.146	18.41	31.11	-0.01	7.53
12.176	18.41	31.11	-0.01	7.53
12.205	18.39	31.10	-0.01	7.53
12.235	18.39	31.10	0.09	7.64
12.265	18.39	31.10	0.09	7.64
12.295	18.40	31.10	0.09	7.64
12.324	18.40	31.10	0.02	7.56
12.354	18.40	31.10	0.02	7.56
12.384	18.37	31.08	0.02	7.56
12.414	18.37	31.08	0.03	7.58
12.444	18.37	31.08	0.03	7.58
12.473	18.36	31.07	0.03	7.58
12.503	18.36	31.07	0.10	7.64
12.533	18.36	31.07	0.10	7.64
12.563	18.35	31.05	0.10	7.64
12.592	18.35	31.05	-0.02	7.53
12.622	18.35	31.05	-0.02	7.53
12.652	18.29	30.99	-0.02	7.53
12.682	18.29	30.99	0.09	7.63
12.711	18.29	30.99	0.09	7.63
12.741	18.33	31.03	0.09	7.63
12.771	18.33	31.03	0.02	7.56
12.801	18.33	31.03	0.02	7.56
12.830	18.37	31.08	0.02	7.56
12.860	18.37	31.08	0.03	7.57
12.890	18.37	31.08	0.03	7.57
12.920	18.34	31.04	0.03	7.57
12.950	18.34	31.04	0.10	7.65
12.979	18.34	31.04	0.10	7.65
13.009	18.27	30.98	0.10	7.65
13.039	18.27	30.98	-0.02	7.53
13.069	18.27	30.98	-0.02	7.53
13.098	18.26	30.96	-0.02	7.53
13.128	18.26	30.96	0.09	7.63
13.158	18.26	30.96	0.09	7.63
13.188	18.23	30.93	0.09	7.63
13.217	18.23	30.93	0.02	7.56
13.247	18.23	30.93	0.02	7.56
13.277	18.26	30.97	0.02	7.56
13.307	18.26	30.97	0.02	7.56
13.336	18.26	30.97	0.02	7.56
13.366	18.26	30.97	0.02	7.56
13.396	18.26	30.97	0.10	7.65
13.426	18.26	30.97	0.10	7.65
13.455	18.27	30.97	0.10	7.65
13.485	18.27	30.97	-0.02	7.53
13.515	18.27	30.97	-0.02	7.53
13.545	18.27	30.97	-0.02	7.53
13.575	18.27	30.97	0.08	7.63
13.604	18.27	30.97	0.08	7.63
13.634	18.28	30.98	0.08	7.63
13.664	18.28	30.98	0.02	7.57
13.694	18.28	30.98	0.02	7.57
13.723	18.31	31.02	0.02	7.57
13.753	18.31	31.02	0.01	7.55
13.783	18.31	31.02	0.01	7.55
13.813	18.33	31.04	0.01	7.55
13.842	18.33	31.04	0.10	7.65
13.872	18.33	31.04	0.10	7.65
13.902	18.31	31.01	0.10	7.65
13.932	18.31	31.01	-0.01	7.53
13.961	18.31	31.01	-0.01	7.53
13.991	18.28	30.99	-0.01	7.53
14.021	18.28	30.99	0.08	7.63
14.051	18.28	30.99	0.08	7.63
14.080	18.27	30.97	0.08	7.63
14.110	18.27	30.97	0.02	7.57
14.140	18.27	30.97	0.02	7.57
14.170	18.30	31.00	0.02	7.57
14.200	18.30	31.00	0.01	7.55
14.229	18.30	31.00	0.01	7.55
14.259	18.33	31.03	0.01	7.55
14.289	18.33	31.03	0.10	7.64
14.319	18.33	31.03	0.10	7.64
14.348	18.33	31.03	0.10	7.64
14.378	18.33	31.03	-0.01	7.53
14.408	18.33	31.03	-0.01	7.53
14.438	18.31	31.01	-0.01	7.53
14.467	18.31	31.01	0.08	7.62
14.497	18.31	31.01	0.08	7.62
14.527	18.30	31.00	0.08	7.62
14.557	18.30	31.00	0.03	7.57
14.586	18.30	31.00	0.03	7.57
14.616	18.33	31.03	0.03	7.57
14.646	18.33	31.03	0.00	7.55
14.676	18.33	31.03	0.00	7.55
14.705	18.36	31.07	0.00	7.55
14.735	18.36	31.07	0.10	7.64
14.765	18.36	31.07	0.10	7.64
14.795	18.35	31.05	0.10	7.64
14.825	18.35	31.05	-0.01	7.53
14.854	18.35	31.05	-0.01	7.53
14.884	18.35	31.05	-0.01	7.53
14.914	18.35	31.05	0.08	7.63
14.944	18.35	31.05	0.08	7.63
14.973	18.37	31.07	0.08	7.63
15.003	18.37	31.07	0.03	7.57
15.033	18.37	31.07	0.03	7.57
15.063	18.32	31.02	0.03	7.57
15.092	18.32	31.02	0.00	7.54
15.122	18.32	31.02	0.00	7.54
15.152	18.34	31.04	0.00	7.54
15.182	18.34	31.04	0.10	7.65
15.211	18.34	31.04	0.10	7.65
15.241	18.34	31.05	0.10	7.65
15.271	18.34	31.05	-0.01	7.53
15.301	18.34	31.05	-0.01	7.53
15.330	18.36	31.06	-0.01	7.53
15.360	18.36	31.06	0.08	7.62
15.390	18.36	31.06	0.08	7.62
15.420	18.38	31.08	0.08	7.62
15.449	18.38	31.08	0.04	7.58
15.479	18.38	31.08	0.04	7.58
15.509	18.35	31.05	0.04	7.58
15.539	18.35	31.05	-0.01	7.54
15.568	18.35	31.05	-0.01	7.54
15.598	18.38	31.08	-0.01	7.54
15.628	18.38	31.08	0.11	7.65
15.658	18.38	31.08	0.11	7.65
15.688	18.40	31.11	0.11	7.65
15.717	18.40	31.11	-0.01	7.53
15.747	18.40	31.11	-0.01	7.53
15.777	18.37	31.07	-0.01	7.53
15.807	18.37	31.07	0.08	7.62
15.836	18.37	31.07	0.08	7.62
15.866	18.40	31.10	0.08	7.62
15.896	18.40	31.10	0.04	7.58
15.926	18.40	31.10	0.04	7.58
15.955	18.39	31.09	0.04	7.58
15.985	18.39	31.09	-0.01	7.53
16.015	18.39	31.09	-0.01	7.53
16.045	18.38	31.08	-0.01	7.53
16.074	18.38	31.08	0.10	7.64
16.104	18.38	31.08	0.10	7.64
16.134	18.42	31.12	0.10	7.64
16.164	18.42	31.12	-0.00	7.54
16.193	18.42	31.12	-0.00	7.54
16.223	18.41	31.12	-0.00	7.54
16.253	18.41	31.12	0.08	7.62
16.283	18.41	31.12	0.08	7.62
16.312	18.37	31.07	0.08	7.62
16.342	18.37	31.07	0.05	7.59
16.372	18.37	31.07	0.05	7.59
16.402	18.36	31.06	0.05	7.59
16.431	18.36	31.06	-0.01	7.54
16.461	18.36	31.06	-0.01	7.54
16.491	18.36	31.06	-0.01	7.54
16.521	18.36	31.06	0.10	7.65
16.551	18.36	31.06	0.10	7.65
16.580	18.39	31.09	0.10	7.65
16.610	18.39	31.09	-0.00	7.54
16.640	18.39	31.09	-0.00	7.54
16.670	18.39	31.09	-0.00	7.54
16.699	18.39	31.09	0.08	7.62
16.729	18.39	31.09	0.08	7.62
16.759	18.42	31.12	0.08	7.62
16.789	18.42	31.12	0.06	7.60
16.818	18.42	31.12	0.06	7.60
16.848	18.42	31.12	0.06	7.60
16.878	18.42	31.12	-0.01	7.53
16.908	18.42	31.12	-0.01	7.53
16.937	18.41	31.11	-0.01	7.53
16.967	18.41	31.11	0.10	7.65
16.997	18.41	31.11	0.10	7.65
17.027	18.44	31.14	0.10	7.65
17.056	18.44	31.14	-0.01	7.54
17.086	18.44	31.14	-0.01	7.54
17.116	18.47	31.17	-0.01	7.54
17.146	18.47	31.17	0.07	7.61
17.175	18.47	31.17	0.07	7.61
17.205	18.47	31.17	0.07	7.61
17.235	18.47	31.17	0.06	7.61
17.265	18.47	31.17	0.06	7.61
17.295	18.46	31.16	0.06	7.61
17.324	18.46	31.16	-0.01	7.53
17.354	18.46	31.16	-0.01	7.53
17.384	18.42	31.12	-0.01	7.53
17.414	18.42	31.12	0.11	7.65
17.443	18.42	31.12	0.11	7.65
17.473	18.52	31.22	0.11	7.65
17.503	18.52	31.22	0.00	7.55
17.533	18.52	31.22	0.00	7.55
17.562	18.60	31.30	0.00	7.55
17.592	18.60	31.30	0.07	7.61
17.622	18.60	31.30	0.07	7.61
17.652	18.60	31.31	0.07	7.61
17.681	18.60	31.31	0.07	7.62
17.711	18.60	31.31	0.07	7.62
17.741	18.57	31.27	0.07	7.62
17.771	18.57	31.27	-0.02	7.53
17.800	18.57	31.27	-0.02	7.53
17.830	18.60	31.30	-0.02	7.53
17.860	18.60	31.30	0.11	7.65
17.890	18.60	31.30	0.11	7.65
17.920	18.64	31.34	0.11	7.65
17.949	18.64	31.34	0.00	7.54
17.979	18.64	31.34	0.00	7.54
18.009	18.70	31.40	0.00	7.54
18.039	18.70	31.40	0.07	7.61
18.068	18.70	31.40	0.07	7.61
18.098	18.74	31.44	0.07	7.61
18.128	18.74	31.44	0.08	7.62
18.158	18.74	31.44	0.08	7.62
18.187	18.61	31.31	0.08	7.62
18.217	18.61	31.31	-0.01	7.53
18.247	18.61	31.31	-0.01	7.53
18.277	18.52	31.23	-0.01	7.53
18.306	18.52	31.23	0.10	7.65
18.336	18.52	31.23	0.10	7.65
18.366	18.57	31.27	0.10	7.65
18.396	18.57	31.27	0.01	7.55
18.425	18.57	31.27	0.01	7.55
18.455	18.62	31.32	0.01	7.55
18.485	18.62	31.32	0.06	7.60
18.515	18.62	31.32	0.06	7.60
18.545	18.59	31.29	0.06	7.60
18.574	18.59	31.29	0.08	7.62
18.604	18.59	31.29	0.08	7.62
18.634	18.56	31.27	0.08	7.62
18.664	18.56	31.27	-0.01	7.53
18.693	18.56	31.27	-0.01	7.53
18.723	18.56	31.26	-0.01	7.53
18.753	18.56	31.26	0.10	7.64
18.783	18.56	31.26	0.10	7.64
18.812	18.53	31.23	0.10	7.64
18.842	18.53	31.23	0.00	7.55
18.872	18.53	31.23	0.00	7.55
18.902	18.38	31.08	0.00	7.55
18.931	18.38	31.08	0.06	7.60
18.961	18.38	31.08	0.06	7.60
18.991	18.36	31.07	0.06	7.60
19.021	18.36	31.07	0.09	7.63
19.050	18.36	31.07	0.09	7.63
19.080	18.33	31.04	0.09	7.63
19.110	18.33	31.04	-0.02	7.53
19.140	18.33	31.04	-0.02	7.53
19.170	18.28	30.98	-0.02	7.53
19.199	18.28	30.98	0.10	7.65
19.229	18.28	30.98	0.10	7.65
19.259	18.26	30.96	0.10	7.65
19.289	18.26	30.96	0.00	7.55
19.318	18.26	30.96	0.00	7.55
19.348	18.26	30.97	0.00	7.55
19.378	18.26	30.97	0.05	7.59
19.408	18.26	30.97	0.05	7.59
19.437	18.30	31.00	0.05	7.59
19.467	18.30	31.00	0.09	7.64
19.497	18.30	31.00	0.09	7.64
19.527	18.24	30.94	0.09	7.64
19.556	18.24	30.94	-0.02	7.53
19.586	18.24	30.94	-0.02	7.53
19.616	18.25	30.95	-0.02	7.53
19.646	18.25	30.95	0.10	7.64
19.675	18.25	30.95	0.10	7.64
19.705	18.31	31.02	0.10	7.64
19.735	18.31	31.02	0.01	7.55
19.765	18.31	31.02	0.01	7.55
19.795	18.30	31.00	0.01	7.55
19.824	18.30	31.00	0.05	7.59
19.854	18.30	31.00	0.05	7.59
19.884	18.29	30.99	0.05	7.59
19.914	18.29	30.99	0.10	7.64
19.943	18.29	30.99	0.10	7.64
19.973	18.26	30.96	0.10	7.64
20.003	18.26	30.96	-0.01	7.53
20.033	18.26	30.96	-0.01	7.53
20.062	18.20	30.90	-0.01	7.53
20.092	18.20	30.90	0.10	7.64
20.122	18.20	30.90	0.10	7.64
20.152	18.20	30.90	0.10	7.64
20.181	18.20	30.90	0.01	7.55
20.211	18.20	30.90	0.01	7.55
20.241	18.18	30.88	0.01	7.55
20.271	18.18	30.88	0.04	7.58
20.301	18.18	30.88	0.04	7.58
20.330	18.25	30.95	0.04	7.58
20.360	18.25	30.95	0.10	7.64
20.390	18.25	30.95	0.10	7.64
20.420	18.26	30.96	0.10	7.64
20.449	18.26	30.96	-0.02	7.53
20.479	18.26	30.96	-0.02	7.53
20.509	18.25	30.95	-0.02	7.53
20.539	18.25	30.95	0.09	7.63
20.568	18.25	30.95	0.09	7.63
20.598	18.25	30.96	0.09	7.63
20.628	18.25	30.96	0.02	7.56
20.658	18.25	30.96	0.02	7.56
20.687	18.23	30.93	0.02	7.56
20.717	18.23	30.93	0.03	7.58
20.747	18.23	30.93	0.03	7.58
20.777	18.24	30.95	0.03	7.58
20.806	18.24	30.95	0.10	7.64
20.836	18.24	30.95	0.10	7.64
20.866	18.28	30.98	0.10	7.64
20.896	18.28	30.98	-0.01	7.53
20.926	18.28	30.98	-0.01	7.53
20.955	18.26	30.96	-0.01	7.53
20.985	18.26	30.96	0.09	7.63
21.015	18.26	30.96	0.09	7.63
21.045	18.28	30.98	0.09	7.63
21.074	18.28	30.98	0.02	7.56
21.104	18.28	30.98	0.02	7.56
21.134	18.28	30.99	0.02	7.56
21.164	18.28	30.99	0.03	7.57
21.193	18.28	30.99	0.03	7.57
21.223	18.29	30.99	0.03	7.57
21.253	18.29	30.99	0.10	7.64
21.283	18.29	30.99	0.10	7.64
21.312	18.34	31.04	0.10	7.64
21.342	18.34	31.04	-0.02	7.53
21.372	18.34	31.04	-0.02	7.53
21.402	18.37	31.07	-0.02	7.53
21.431	18.37	31.07	0.09	7.63
21.461	18.37	31.07	0.09	7.63
21.491	18.33	31.03	0.09	7.63
21.521	18.33	31.03	0.01	7.56
21.550	18.33	31.03	0.01	7.56
21.580	18.31	31.02	0.01	7.56
21.610	18.31	31.02	0.03	7.57
21.640	18.31	31.02	0.03	7.57
21.670	18.34	31.04	0.03	7.57
21.699	18.34	31.04	0.10	7.64
21.729	18.34	31.04	0.10	7.64
21.759	18.34	31.04	0.10	7.64
21.789	18.34	31.04	-0.02	7.53
21.818	18.34	31.04	-0.02	7.53
21.848	18.30	31.01	-0.02	7.53
21.878	18.30	31.01	0.09	7.63
21.908	18.30	31.01	0.09	7.63
21.937	18.30	31.00	0.09	7.63
21.967	18.30	31.00	0.02	7.56
21.997	18.30	31.00	0.02	7.56
22.027	18.32	31.03	0.02	7.56
22.056	18.32	31.03	0.02	7.56
22.086	18.32	31.03	0.02	7.56
22.116	18.30	31.01	0.02	7.56
22.146	18.30	31.01	0.10	7.65
22.175	18.30	31.01	0.10	7.65
22.205	18.31	31.02	0.10	7.65
22.235	18.31	31.02	-0.01	7.53
22.265	18.31	31.02	-0.01	7.53
22.295	18.36	31.07	-0.01	7.53
22.324	18.36	31.07	0.09	7.63
22.354	18.36	31.07	0.09	7.63
22.384	18.37	31.07	0.09	7.63
22.414	18.37	31.07	0.03	7.57
22.443	18.37	31.07	0.03	7.57
22.473	18.31	31.01	0.03	7.57
22.503	18.31	31.01	0.01	7.56
22.533	18.31	31.01	0.01	7.56
22.562	18.29	31.00	0.01	7.56
22.592	18.29	31.00	0.11	7.65
22.622	18.29	31.00	0.11	7.65
22.652	18.32	31.02	0.11	7.65
22.681	18.32	31.02	-0.01	7.53
22.711	18.32	31.02	-0.01	7.53
22.741	18.35	31.05	-0.01	7.53
22.771	18.35	31.05	0.08	7.62
22.800	18.35	31.05	0.08	7.62
22.830	18.34	31.04	0.08	7.62
22.860	18.34	31.04	0.03	7.57
22.890	18.34	31.04	0.03	7.57
22.920	18.28	30.98	0.03	7.57
22.949	18.28	30.98	0.01	7.55
22.979	18.28	30.98	0.01	7.55
23.009	18.36	31.06	0.01	7.55
23.039	18.36	31.06	0.10	7.65
23.068	18.36	31.06	0.10	7.65
23.098	18.34	31.04	0.10	7.65
23.128	18.34	31.04	-0.01	7.53
23.158	18.34	31.04	-0.01	7.53
23.187	18.38	31.08	-0.01	7.53
23.217	18.38	31.08	0.08	7.62
23.247	18.38	31.08	0.08	7.62
23.277	18.39	31.09	0.08	7.62
23.306	18.39	31.09	0.03	7.57
23.336	18.39	31.09	0.03	7.57
23.366	18.37	31.07	0.03	7.57
23.396	18.37	31.07	0.01	7.55
23.426	18.37	31.07	0.01	7.55
23.455	18.34	31.05	0.01	7.55
23.485	18.34	31.05	0.10	7.65
23.515	18.34	31.05	0.10	7.65
23.545	18.29	30.99	0.10	7.65
23.574	18.29	30.99	-0.01	7.53
23.604	18.29	30.99	-0.01	7.53
23.634	18.27	30.97	-0.01	7.53
23.664	18.27	30.97	0.08	7.63
23.693	18.27	30.97	0.08	7.63
23.723	18.29	30.99	0.08	7.63
23.753	18.29	30.99	0.04	7.58
23.783	18.29	30.99	0.04	7.58
23.812	18.26	30.97	0.04	7.58
23.842	18.26	30.97	0.00	7.54
23.872	18.26	30.97	0.00	7.54
23.902	18.29	31.00	0.00	7.54
23.931	18.29	31.00	0.10	7.64
23.961	18.29	31.00	0.10	7.64
23.991	18.25	30.95	0.10	7.64
24.021	18.25	30.95	-0.01	7.53
24.050	18.25	30.95	-0.01	7.53
24.080	18.29	30.99	-0.01	7.53
24.110	18.29	30.99	0.08	7.62
24.140	18.29	30.99	0.08	7.62
24.169	18.37	31.08	0.08	7.62
24.199	18.37	31.08	0.04	7.58
24.229	18.37	31.08	0.04	7.58
24.259	18.38	31.08	0.04	7.58
24.288	18.38	31.08	-0.01	7.54
24.318	18.38	31.08	-0.01	7.54
24.348	18.38	31.08	-0.01	7.54
24.378	18.38	31.08	0.11	7.65
24.408	18.38	31.08	0.11	7.65
24.437	18.37	31.07	0.11	7.65
24.467	18.37	31.07	-0.01	7.53
24.497	18.37	31.07	-0.01	7.53
24.527	18.33	31.03	-0.01	7.53
24.556	18.33	31.03	0.08	7.62
24.586	18.33	31.03	0.08	7.62
24.616	18.36	31.06	0.08	7.62
24.646	18.36	31.06	0.04	7.58
24.675	18.36	31.06	0.04	7.58
24.705	18.35	31.05	0.04	7.58
24.735	18.35	31.05	-0.01	7.54
24.765	18.35	31.05	-0.01	7.54
24.794	18.29	31.00	-0.01	7.54
24.824	18.29	31.00	0.11	7.65
24.854	18.29	31.00	0.11	7.65
24.884	18.27	30.97	0.11	7.65
24.913	18.27	30.97	-0.01	7.54
24.943	18.27	30.97	-0.01	7.54
24.973	18.23	30.93	-0.01	7.54
25.003	18.23	30.93	0.08	7.62
25.032	18.23	30.93	0.08	7.62
25.062	18.27	30.98	0.08	7.62
25.092	18.27	30.98	0.04	7.59
25.122	18.27	30.98	0.04	7.59
25.152	18.32	31.02	0.04	7.59
25.181	18.32	31.02	-0.01	7.53
25.211	18.32	31.02	-0.01	7.53
25.241	18.29	30.99	-0.01	7.53
25.271	18.29	30.99	0.10	7.65
25.300	18.29	30.99	0.10	7.65
25.330	18.26	30.96	0.10	7.65
25.360	18.26	30.96	-0.00	7.54
25.390	18.26	30.96	-0.00	7.54
25.419	18.25	30.95	-0.00	7.54
25.449	18.25	30.95	0.08	7.62
25.479	18.25	30.95	0.08	7.62
25.509	18.18	30.89	0.08	7.62
25.538	18.18	30.89	0.05	7.59
25.568	18.18	30.89	0.05	7.59
25.598	18.19	30.89	0.05	7.59
25.628	18.19	30.89	-0.01	7.53
25.658	18.19	30.89	-0.01	7.53
25.687	18.19	30.89	-0.01	7.53
25.717	18.19	30.89	0.10	7.64
25.747	18.19	30.89	0.10	7.64
25.777	18.18	30.88	0.10	7.64
25.806	18.18	30.88	0.00	7.54
25.836	18.18	30.88	0.00	7.54
25.866	18.18	30.88	0.00	7.54
25.896	18.18	30.88	0.08	7.62
25.925	18.18	30.88	0.08	7.62
25.955	18.19	30.89	0.08	7.62
25.985	18.19	30.89	0.05	7.59
26.015	18.19	30.89	0.05	7.59
26.044	18.21	30.92	0.05	7.59
26.074	18.21	30.92	-0.01	7.53
26.104	18.21	30.92	-0.01	7.53
26.134	18.23	30.94	-0.01	7.53
26.163	18.23	30.94	0.10	7.65
26.193	18.23	30.94	0.10	7.65
26.223	18.24	30.94	0.10	7.65
26.253	18.24	30.94	-0.00	7.54
26.282	18.24	30.94	-0.00	7.54
26.312	18.26	30.97	-0.00	7.54
26.342	18.26	30.97	0.08	7.62
26.372	18.26	30.97	0.08	7.62
26.401	18.23	30.93	0.08	7.62
26.431	18.23	30.93	0.05	7.60
26.461	18.23	30.93	0.05	7.60
26.491	18.22	30.92	0.05	7.60
26.520	18.22	30.92	-0.01	7.53
26.550	18.22	30.92	-0.01	7.53
26.580	18.20	30.90	-0.01	7.53
26.610	18.20	30.90	0.10	7.65
26.640	18.20	30.90	0.10	7.65
26.669	18.17	30.87	0.10	7.65
26.699	18.17	30.87	-0.00	7.54
26.729	18.17	30.87	-0.00	7.54
26.759	18.17	30.88	-0.00	7.54
26.788	18.17	30.88	0.08	7.62
26.818	18.17	30.88	0.08	7.62
26.848	18.14	30.85	0.08	7.62
26.878	18.14	30.85	0.06	7.60
26.907	18.14	30.85	0.06	7.60
26.937	18.19	30.89	0.06	7.60
26.967	18.19	30.89	-0.01	7.53
26.997	18.19	30.89	-0.01	7.53
27.026	18.22	30.92	-0.01	7.53
27.056	18.22	30.92	0.11	7.65
27.086	18.22	30.92	0.11	7.65
27.116	18.19	30.89	0.11	7.65
27.145	18.19	30.89	-0.00	7.54
27.175	18.19	30.89	-0.00	7.54
27.205	18.19	30.90	-0.00	7.54
27.235	18.19	30.90	0.07	7.62
27.265	18.19	30.90	0.07	7.62
27.294	18.15	30.86	0.07	7.62
27.324	18.15	30.86	0.06	7.61
27.354	18.15	30.86	0.06	7.61
27.384	18.13	30.83	0.06	7.61
27.413	18.13	30.83	-0.01	7.53
27.443	18.13	30.83	-0.01	7.53
27.473	18.19	30.89	-0.01	7.53
27.503	18.19	30.89	0.11	7.65
27.532	18.19	30.89	0.11	7.65
27.562	18.13	30.83	0.11	7.65
27.592	18.13	30.83	-0.00	7.54
27.622	18.13	30.83	-0.00	7.54
27.651	18.13	30.83	-0.00	7.54
27.681	18.13	30.83	0.07	7.61
27.711	18.13	30.83	0.07	7.61
27.741	18.12	30.82	0.07	7.61
27.770	18.12	30.82	0.07	7.61
27.800	18.12	30.82	0.07	7.61
27.830	18.10	30.80	0.07	7.61
27.860	18.10	30.80	-0.01	7.53
27.890	18.10	30.80	-0.01	7.53
27.919	18.20	30.90	-0.01	7.53
27.949	18.20	30.90	0.10	7.65
27.979	18.20	30.90	0.10	7.65
28.009	18.23	30.93	0.10	7.65
28.038	18.23	30.93	0.00	7.54
28.068	18.23	30.93	0.00	7.54
28.098	18.20	30.90	0.00	7.54
28.128	18.20	30.90	0.07	7.61
28.157	18.20	30.90	0.07	7.61
28.187	18.20	30.90	0.07	7.61
28.217	18.20	30.90	0.07	7.62
28.247	18.20	30.90	0.07	7.62
28.276	18.13	30.83	0.07	7.62
28.306	18.13	30.83	-0.01	7.53
28.336	18.13	30.83	-0.01	7.53
28.366	18.15	30.86	-0.01	7.53
28.395	18.15	30.86	0.11	7.65
28.425	18.15	30.86	0.11	7.65
28.455	18.21	30.92	0.11	7.65
28.485	18.21	30.92	0.00	7.55
28.514	18.21	30.92	0.00	7.55
28.544	18.20	30.90	0.00	7.55
28.574	18.20	30.90	0.07	7.61
28.604	18.20	30.90	0.07	7.61
28.633	18.20	30.91	0.07	7.61
28.663	18.20	30.91	0.07	7.62
28.693	18.20	30.91	0.07	7.62
28.723	18.16	30.87	0.07	7.62
28.753	18.16	30.87	-0.01	7.53
28.782	18.16	30.87	-0.01	7.53
28.812	18.15	30.85	-0.01	7.53
28.842	18.15	30.85	0.11	7.65
28.872	18.15	30.85	0.11	7.65
28.901	18.19	30.89	0.11	7.65
28.931	18.19	30.89	0.01	7.55
28.961	18.19	30.89	0.01	7.55
28.991	18.19	30.90	0.01	7.55
29.020	18.19	30.90	0.06	7.60
29.050	18.19	30.90	0.06	7.60
29.080	18.22	30.92	0.06	7.60
29.110	18.22	30.92	0.08	7.62
29.139	18.22	30.92	0.08	7.62
29.169	18.21	30.92	0.08	7.62
29.199	18.21	30.92	-0.01	7.53
29.229	18.21	30.92	-0.01	7.53
29.259	18.18	30.88	-0.01	7.53
29.288	18.18	30.88	0.10	7.64
29.318	18.18	30.88	0.10	7.64
29.348	18.19	30.89	0.10	7.64
29.378	18.19	30.89	0.01	7.55
29.407	18.19	30.89	0.01	7.55
29.437	18.13	30.83	0.01	7.55
29.467	18.13	30.83	0.06	7.60
29.497	18.13	30.83	0.06	7.60
29.526	18.08	30.78	0.06	7.60
29.556	18.08	30.78	0.08	7.63
29.586	18.08	30.78	0.08	7.63
29.616	18.13	30.83	0.08	7.63
29.645	18.13	30.83	-0.01	7.53
29.675	18.13	30.83	-0.01	7.53
29.705	18.14	30.85	-0.01	7.53
29.735	18.14	30.85	0.11	7.65
29.764	18.14	30.85	0.11	7.65
29.794	18.20	30.91	0.11	7.65
29.824	18.20	30.91	0.00	7.54
29.854	18.20	30.91	0.00	7.54
29.884	18.21	30.91	0.00	7.54
29.913	18.21	30.91	0.06	7.61
29.943	18.21	30.91	0.06	7.61
29.973	18.20	30.90	0.06	7.61
30.003	18.20	30.90	0.08	7.63
30.032	18.20	30.90	0.08	7.63
30.062	18.19	30.89	0.08	7.63
30.092	18.19	30.89	-0.01	7.53
30.122	18.19	30.89	-0.01	7.53
30.151	18.15	30.85	-0.01	7.53
30.181	18.15	30.85	0.10	7.65
30.211	18.15	30.85	0.10	7.65
30.241	18.16	30.86	0.10	7.65
30.270	18.16	30.86	0.01	7.55
30.300	18.16	30.86	0.01	7.55
30.330	18.18	30.88	0.01	7.55
30.360	18.18	30.88	0.06	7.60
30.390	18.18	30.88	0.06	7.60
30.419	18.16	30.86	0.06	7.60
30.449	18.16	30.86	0.09	7.63
30.479	18.16	30.86	0.09	7.63
30.509	18.17	30.87	0.09	7.63
30.538	18.17	30.87	-0.01	7.53
30.568	18.17	30.87	-0.01	7.53
30.598	18.16	30.86	-0.01	7.53
30.628	18.16	30.86	0.10	7.64
30.657	18.16	30.86	0.10	7.64
30.687	18.18	30.88	0.10	7.64
30.717	18.18	30.88	0.01	7.55
30.747	18.18	30.88	0.01	7.55
30.776	18.24	30.94	0.01	7.55
30.806	18.24	30.94	0.06	7.60
30.836	18.24	30.94	0.06	7.60
30.866	18.21	30.91	0.06	7.60
30.895	18.21	30.91	0.09	7.63
30.925	18.21	30.91	0.09	7.63
30.955	18.18	30.89	0.09	7.63
30.985	18.18	30.89	-0.01	7.53
31.015	18.18	30.89	-0.01	7.53
31.044	18.16	30.87	-0.01	7.53
31.074	18.16	30.87	0.10	7.64
31.104	18.16	30.87	0.10	7.64
31.134	18.10	30.80	0.10	7.64
31.163	18.10	30.80	0.01	7.55
31.193	18.10	30.80	0.01	7.55
31.223	18.11	30.81	0.01	7.55
31.253	18.11	30.81	0.06	7.60
31.282	18.11	30.81	0.06	7.60
31.312	18.15	30.85	0.06	7.60
31.342	18.15	30.85	0.09	7.63
31.372	18.15	30.85	0.09	7.63
31.401	18.15	30.86	0.09	7.63
31.431	18.15	30.86	-0.02	7.53
31.461	18.15	30.86	-0.02	7.53
31.491	18.16	30.86	-0.02	7.53
31.520	18.16	30.86	0.10	7.64
31.550	18.16	30.86	0.10	7.64
31.580	18.14	30.84	0.10	7.64
31.610	18.14	30.84	0.01	7.55
31.640	18.14	30.84	0.01	7.55
31.669	18.24	30.94	0.01	7.55
31.699	18.24	30.94	0.06	7.60
31.729	18.24	30.94	0.06	7.60
31.759	18.26	30.97	0.06	7.60
31.788	18.26	30.97	0.09	7.63
31.818	18.26	30.97	0.09	7.63
31.848	18.24	30.94	0.09	7.63
31.878	18.24	30.94	-0.02	7.53
31.907	18.24	30.94	-0.02	7.53
31.937	18.22	30.93	-0.02	7.53
31.967	18.22	30.93	0.10	7.64
31.997	18.22	30.93	0.10	7.64
32.026	18.19	30.89	0.10	7.64
32.056	18.19	30.89	0.01	7.55
32.086	18.19	30.89	0.01	7.55
32.116	18.19	30.89	0.01	7.55
32.145	18.19	30.89	0.05	7.59
32.175	18.19	30.89	0.05	7.59
32.205	18.22	30.92	0.05	7.59
32.235	18.22	30.92	0.09	7.63
32.265	18.22	30.92	0.09	7.63
32.294	18.19	30.89	0.09	7.63
32.324	18.19	30.89	-0.02	7.53
32.354	18.19	30.89	-0.02	7.53
32.384	18.15	30.85	-0.02	7.53
32.413	18.15	30.85	0.10	7.64
32.443	18.15	30.85	0.10	7.64
32.473	18.14	30.84	0.10	7.64
32.503	18.14	30.84	0.01	7.55
32.532	18.14	30.84	0.01	7.55
32.562	18.13	30.84	0.01	7.55
32.592	18.13	30.84	0.05	7.59
32.622	18.13	30.84	0.05	7.59
32.651	18.19	30.89	0.05	7.59
32.681	18.19	30.89	0.09	7.63
32.711	18.19	30.89	0.09	7.63
32.741	18.15	30.85	0.09	7.63
32.770	18.15	30.85	-0.01	7.53
32.800	18.15	30.85	-0.01	7.53
32.830	18.10	30.80	-0.01	7.53
32.860	18.10	30.80	0.10	7.64
32.889	18.10	30.80	0.10	7.64
32.919	18.10	30.81	0.10	7.64
32.949	18.10	30.81	0.01	7.55
32.979	18.10	30.81	0.01	7.55
33.009	18.13	30.83	0.01	7.55
33.038	18.13	30.83	0.05	7.59
33.068	18.13	30.83	0.05	7.59
33.098	18.14	30.84	0.05	7.59
33.128	18.14	30.84	0.09	7.63
33.157	18.14	30.84	0.09	7.63
33.187	18.15	30.85	0.09	7.63
33.217	18.15	30.85	-0.01	7.53
33.247	18.15	30.85	-0.01	7.53
33.276	18.10	30.80	-0.01	7.53
33.306	18.10	30.80	0.10	7.64
33.336	18.10	30.80	0.10	7.64
33.366	18.14	30.85	0.10	7.64
33.395	18.14	30.85	0.01	7.55
33.425	18.14	30.85	0.01	7.55
33.455	18.17	30.87	0.01	7.55
33.485	18.17	30.87	0.05	7.59
33.514	18.17	30.87	0.05	7.59
33.544	18.19	30.89	0.05	7.59
33.574	18.19	30.89	0.09	7.63
33.604	18.19	30.89	0.09	7.63
33.634	18.20	30.90	0.09	7.63
33.663	18.20	30.90	-0.01	7.53
33.693	18.20	30.90	-0.01	7.53
33.723	18.20	30.90	-0.01	7.53
33.753	18.20	30.90	0.10	7.64
33.782	18.20	30.90	0.10	7.64
33.812	18.20	30.90	0.10	7.64
33.842	18.20	30.90	0.01	7.55
33.872	18.20	30.90	0.01	7.55
33.901	18.17	30.87	0.01	7.55
33.931	18.17	30.87	0.05	7.59
33.961	18.17	30.87	0.05	7.59
33.991	18.17	30.87	0.05	7.59
34.020	18.17	30.87	0.10	7.64
34.050	18.17	30.87	0.10	7.64
34.080	18.25	30.95	0.10	7.64
34.110	18.25	30.95	-0.01	7.53
34.139	18.25	30.95	-0.01	7.53
34.169	18.24	30.94	-0.01	7.53
34.199	18.24	30.94	0.10	7.64
34.229	18.24	30.94	0.10	7.64
34.259	18.20	30.90	0.10	7.64
34.288	18.20	30.90	0.01	7.55
34.318	18.20	30.90	0.01	7.55
34.348	18.21	30.91	0.01	7.55
34.378	18.21	30.91	0.05	7.59
34.407	18.21	30.91	0.05	7.59
34.437	18.23	30.93	0.05	7.59
34.467	18.23	30.93	0.09	7.64
34.497	18.23	30.93	0.09	7.64
34.526	18.25	30.95	0.09	7.64
34.556	18.25	30.95	-0.01	7.53
34.586	18.25	30.95	-0.01	7.53
34.616	18.24	30.94	-0.01	7.53
34.645	18.24	30.94	0.10	7.64
34.675	18.24	30.94	0.10	7.64
34.705	18.23	30.93	0.10	7.64
34.735	18.23	30.93	0.01	7.55
34.764	18.23	30.93	0.01	7.55
34.794	18.20	30.90	0.01	7.55
34.824	18.20	30.90	0.04	7.59
34.854	18.20	30.90	0.04	7.59
34.884	18.20	30.91	0.04	7.59
34.913	18.20	30.91	0.10	7.64
34.943	18.20	30.91	0.10	7.64
34.973	18.24	30.94	0.10	7.64
35.003	18.24	30.94	-0.02	7.53
35.032	18.24	30.94	-0.02	7.53
35.062	18.21	30.91	-0.02	7.53
35.092	18.21	30.91	0.10	7.64
35.122	18.21	30.91	0.10	7.64
35.151	18.18	30.89	0.10	7.64
35.181	18.18	30.89	0.01	7.55
35.211	18.18	30.89	0.01	7.55
35.241	18.16	30.87	0.01	7.55
35.270	18.16	30.87	0.05	7.59
35.300	18.16	30.87	0.05	7.59
35.330	18.18	30.88	0.05	7.59
35.360	18.18	30.88	0.09	7.64
35.390	18.18	30.88	0.09	7.64
35.419	18.23	30.93	0.09	7.64
35.449	18.23	30.93	-0.02	7.53
35.479	18.23	30.93	-0.02	7.53
35.509	18.25	30.95	-0.02	7.53
35.538	18.25	30.95	0.10	7.64
35.568	18.25	30.95	0.10	7.64
35.598	18.24	30.94	0.10	7.64
35.628	18.24	30.94	0.01	7.55
35.657	18.24	30.94	0.01	7.55
35.687	18.27	30.97	0.01	7.55
35.717	18.27	30.97	0.04	7.59
35.747	18.27	30.97	0.04	7.59
35.776	18.22	30.93	0.04	7.59
35.806	18.22	30.93	0.10	7.64
35.836	18.22	30.93	0.10	7.64
35.866	18.20	30.90	0.10	7.64
35.895	18.20	30.90	-0.02	7.53
35.925	18.20	30.90	-0.02	7.53
35.955	18.26	30.96	-0.02	7.53
35.985	18.26	30.96	0.10	7.64
36.015	18.26	30.96	0.10	7.64
36.044	18.25	30.95	0.10	7.64
36.074	18.25	30.95	0.01	7.55
36.104	18.25	30.95	0.01	7.55
36.134	18.23	30.94	0.01	7.55
36.163	18.23	30.94	0.04	7.58
36.193	18.23	30.94	0.04	7.58
36.223	18.24	30.94	0.04	7.58
36.253	18.24	30.94	0.10	7.64
36.282	18.24	30.94	0.10	7.64
36.312	18.23	30.93	0.10	7.64
36.342	18.23	30.93	-0.01	7.53
36.372	18.23	30.93	-0.01	7.53
36.401	18.26	30.96	-0.01	7.53
36.431	18.26	30.96	0.09	7.63
36.461	18.26	30.96	0.09	7.63
36.491	18.27	30.97	0.09	7.63
36.520	18.27	30.97	0.01	7.55
36.550	18.27	30.97	0.01	7.55
36.580	18.29	30.99	0.01	7.55
36.610	18.29	30.99	0.04	7.58
36.640	18.29	30.99	0.04	7.58
36.669	18.27	30.98	0.04	7.58
36.699	18.27	30.98	0.10	7.64
36.729	18.27	30.98	0.10	7.64
36.759	18.24	30.94	0.10	7.64
36.788	18.24	30.94	-0.01	7.53
36.818	18.24	30.94	-0.01	7.53
36.848	18.25	30.95	-0.01	7.53
36.878	18.25	30.95	0.09	7.64
36.907	18.25	30.95	0.09	7.64
36.937	18.27	30.98	0.09	7.64
36.967	18.27	30.98	0.01	7.55
36.997	18.27	30.98	0.01	7.55
37.026	18.27	30.97	0.01	7.55
37.056	18.27	30.97	0.04	7.58
37.086	18.27	30.97	0.04	7.58
37.116	18.24	30.95	0.04	7.58
37.146	18.24	30.95	0.10	7.64
37.175	18.24	30.95	0.10	7.64
37.205	18.27	30.97	0.10	7.64
37.235	18.27	30.97	-0.01	7.53
37.265	18.27	30.97	-0.01	7.53
37.294	18.34	31.04	-0.01	7.53
37.324	18.34	31.04	0.09	7.64
37.354	18.34	31.04	0.09	7.64
37.384	18.35	31.05	0.09	7.64
37.413	18.35	31.05	0.01	7.55
37.443	18.35	31.05	0.01	7.55
37.473	18.29	30.99	0.01	7.55
37.503	18.29	30.99	0.04	7.58
37.532	18.29	30.99	0.04	7.58
37.562	18.22	30.92	0.04	7.58
37.592	18.22	30.92	0.10	7.64
37.622	18.22	30.92	0.10	7.64
37.651	18.21	30.92	0.10	7.64
37.681	18.21	30.92	-0.01	7.53
37.711	18.21	30.92	-0.01	7.53
37.741	18.24	30.94	-0.01	7.53
37.770	18.24	30.94	0.10	7.64
37.800	18.24	30.94	0.10	7.64
37.830	18.27	30.98	0.10	7.64
37.860	18.27	30.98	0.01	7.56
37.889	18.27	30.98	0.01	7.56
37.919	18.28	30.98	0.01	7.56
37.949	18.28	30.98	0.04	7.58
37.979	18.28	30.98	0.04	7.58
38.009	18.24	30.94	0.04	7.58
38.038	18.24	30.94	0.10	7.64
38.068	18.24	30.94	0.10	7.64
38.098	18.30	31.01	0.10	7.64
38.128	18.30	31.01	-0.01	7.53
38.157	18.30	31.01	-0.01	7.53
38.187	18.39	31.09	-0.01	7.53
38.217	18.39	31.09	0.09	7.63
38.247	18.39	31.09	0.09	7.63
38.276	18.40	31.11	0.09	7.63
38.306	18.40	31.11	0.01	7.55
38.336	18.40	31.11	0.01	7.55
38.366	18.41	31.11	0.01	7.55
38.395	18.41	31.11	0.04	7.58
38.425	18.41	31.11	0.04	7.58
38.455	18.42	31.12	0.04	7.58
38.485	18.42	31.12	0.10	7.64
38.515	18.42	31.12	0.10	7.64
38.544	18.43	31.13	0.10	7.64
38.574	18.43	31.13	-0.02	7.53
38.604	18.43	31.13	-0.02	7.53
38.634	18.36	31.06	-0.02	7.53
38.663	18.36	31.06	0.09	7.63
38.693	18.36	31.06	0.09	7.63
38.723	18.40	31.10	0.09	7.63
38.753	18.40	31.10	0.02	7.56
38.782	18.40	31.10	0.02	7.56
38.812	18.43	31.13	0.02	7.56
38.842	18.43	31.13	0.04	7.58
38.872	18.43	31.13	0.04	7.58
38.901	18.41	31.11	0.04	7.58
38.931	18.41	31.11	0.10	7.64
38.961	18.41	31.11	0.10	7.64
38.991	18.42	31.13	0.10	7.64
39.020	18.42	31.13	-0.01	7.53
39.050	18.42	31.13	-0.01	7.53
39.080	18.41	31.11	-0.01	7.53
39.110	18.41	31.11	0.09	7.63
39.140	18.41	31.11	0.09	7.63
39.169	18.41	31.11	0.09	7.63
39.199	18.41	31.11	0.01	7.56
39.229	18.41	31.11	0.01	7.56
39.259	18.37	31.07	0.01	7.56
39.288	18.37	31.07	0.04	7.58
39.318	18.37	31.07	0.04	7.58
39.348	18.38	31.08	0.04	7.58
39.378	18.38	31.08	0.10	7.64
39.407	18.38	31.08	0.10	7.64
39.437	18.39	31.09	0.10	7.64
39.467	18.39	31.09	-0.01	7.53
39.497	18.39	31.09	-0.01	7.53
39.526	18.36	31.07	-0.01	7.53
39.556	18.36	31.07	0.09	7.63
39.586	18.36	31.07	0.09	7.63
39.616	18.36	31.07	0.09	7.63
39.645	18.36	31.07	0.02	7.56
39.675	18.36	31.07	0.02	7.56
39.705	18.42	31.13	0.02	7.56
39.735	18.42	31.13	0.04	7.58
39.765	18.42	31.13	0.04	7.58
39.794	18.42	31.13	0.04	7.58
39.824	18.42	31.13	0.10	7.64
39.854	18.42	31.13	0.10	7.64
39.884	18.42	31.13	0.10	7.64
39.913	18.42	31.13	-0.01	7.53
39.943	18.42	31.13	-0.01	7.53
39.973	18.39	31.09	-0.01	7.53
40.003	18.39	31.09	0.09	7.64
40.032	18.39	31.09	0.09	7.64
40.062	18.36	31.06	0.09	7.64
40.092	18.36	31.06	0.01	7.56
40.122	18.36	31.06	0.01	7.56
40.151	18.43	31.13	0.01	7.56
40.181	18.43	31.13	0.04	7.58
40.211	18.43	31.13	0.04	7.58
40.241	18.45	31.15	0.04	7.58
40.270	18.45	31.15	0.10	7.64
40.300	18.45	31.15	0.10	7.64
40.330	18.43	31.14	0.10	7.64
40.360	18.43	31.14	-0.01	7.53
40.390	18.43	31.14	-0.01	7.53
40.419	18.43	31.13	-0.01	7.53
40.449	18.43	31.13	0.10	7.64
40.479	18.43	31.13	0.10	7.64
40.509	18.35	31.05	0.10	7.64
40.538	18.35	31.05	0.01	7.55
40.568	18.35	31.05	0.01	7.55
40.598	18.40	31.10	0.01	7.55
40.628	18.40	31.10	0.04	7.58
40.657	18.40	31.10	0.04	7.58
40.687	18.40	31.11	0.04	7.58
40.717	18.40	31.11	0.10	7.64
40.747	18.40	31.11	0.10	7.64
40.776	18.39	31.10	0.10	7.64
40.806	18.39	31.10	-0.01	7.53
40.836	18.39	31.10	-0.01	7.53
40.866	18.42	31.12	-0.01	7.53
40.895	18.42	31.12	0.09	7.63
40.925	18.42	31.12	0.09	7.63
40.955	18.43	31.13	0.09	7.63
40.985	18.43	31.13	0.01	7.55
41.015	18.43	31.13	0.01	7.55
41.044	18.47	31.17	0.01	7.55
41.074	18.47	31.17	0.04	7.58
41.104	18.47	31.17	0.04	7.58
41.134	18.54	31.24	0.04	7.58
41.163	18.54	31.24	0.10	7.64
41.193	18.54	31.24	0.10	7.64
41.223	18.53	31.24	0.10	7.64
41.253	18.53	31.24	-0.01	7.53
41.282	18.53	31.24	-0.01	7.53
41.312	18.58	31.29	-0.01	7.53
41.342	18.58	31.29	0.09	7.63
41.372	18.58	31.29	0.09	7.63
41.401	18.52	31.22	0.09	7.63
41.431	18.52	31.22	0.01	7.55
41.461	18.52	31.22	0.01	7.55
41.491	18.54	31.24	0.01	7.55
41.520	18.54	31.24	0.04	7.58
41.550	18.54	31.24	0.04	7.58
41.580	18.57	31.27	0.04	7.58
41.610	18.57	31.27	0.10	7.64
41.639	18.57	31.27	0.10	7.64
41.669	18.66	31.36	0.10	7.64
41.699	18.66	31.36	-0.02	7.53
41.729	18.66	31.36	-0.02	7.53
41.758	18.69	31.39	-0.02	7.53
41.788	18.69	31.39	0.09	7.64
41.818	18.69	31.39	0.09	7.64
41.848	18.65	31.35	0.09	7.64
41.878	18.65	31.35	0.01	7.55
41.907	18.65	31.35	0.01	7.55
41.937	18.59	31.29	0.01	7.55
41.967	18.59	31.29	0.04	7.58
41.997	18.59	31.29	0.04	7.58
42.026	18.58	31.28	0.04	7.58
42.056	18.58	31.28	0.10	7.64
42.086	18.58	31.28	0.10	7.64
42.116	18.59	31.30	0.10	7.64
42.145	18.59	31.30	-0.01	7.53
42.175	18.59	31.30	-0.01	7.53
42.205	18.59	31.29	-0.01	7.53
42.235	18.59	31.29	0.10	7.64
42.264	18.59	31.29	0.10	7.64
42.294	18.77	31.47	0.10	7.64
42.324	18.77	31.47	0.01	7.55
42.354	18.77	31.47	0.01	7.55
42.384	18.60	31.30	0.01	7.55
42.413	18.60	31.30	0.04	7.58
42.443	18.60	31.30	0.04	7.58
42.473	18.39	31.09	0.04	7.58
42.503	18.39	31.09	0.10	7.64
42.532	18.39	31.09	0.10	7.64
42.562	18.42	31.13	0.10	7.64
42.592	18.42	31.13	-0.01	7.53
42.622	18.42	31.13	-0.01	7.53
42.651	18.40	31.10	-0.01	7.53
42.681	18.40	31.10	0.09	7.64
42.711	18.40	31.10	0.09	7.64
42.741	18.33	31.03	0.09	7.64
42.770	18.33	31.03	0.01	7.55
42.800	18.33	31.03	0.01	7.55
42.830	18.29	31.00	0.01	7.55
42.860	18.29	31.00	0.05	7.59
42.889	18.29	31.00	0.05	7.59
42.919	18.38	31.08	0.05	7.59
42.949	18.38	31.08	0.10	7.64
42.979	18.38	31.08	0.10	7.64
43.008	18.40	31.10	0.10	7.64
43.038	18.40	31.10	-0.01	7.53
43.068	18.40	31.10	-0.01	7.53
43.098	18.37	31.07	-0.01	7.53
43.128	18.37	31.07	0.10	7.64
43.157	18.37	31.07	0.10	7.64
43.187	18.37	31.08	0.10	7.64
43.217	18.37	31.08	0.01	7.55
43.247	18.37	31.08	0.01	7.55
43.276	18.49	31.20	0.01	7.55
43.306	18.49	31.20	0.05	7.59
43.336	18.49	31.20	0.05	7.59
43.366	18.72	31.43	0.05	7.59
43.395	18.72	31.43	0.10	7.64
43.425	18.72	31.43	0.10	7.64
43.455	18.98	31.68	0.10	7.64
43.485	18.98	31.68	-0.01	7.53
43.514	18.98	31.68	-0.01	7.53
43.544	18.65	31.36	-0.01	7.53
43.574	18.65	31.36	0.10	7.64
43.604	18.65	31.36	0.10	7.64
43.634	18.68	31.39	0.10	7.64
43.663	18.68	31.39	0.01	7.55
43.693	18.68	31.39	0.01	7.55
43.723	18.57	31.27	0.01	7.55
43.753	18.57	31.27	0.04	7.59
43.782	18.57	31.27	0.04	7.59
43.812	18.21	30.91	0.04	7.59
43.842	18.21	30.91	0.10	7.64
43.872	18.21	30.91	0.10	7.64
43.901	18.25	30.95	0.10	7.64
43.931	18.25	30.95	-0.02	7.53
43.961	18.25	30.95	-0.02	7.53
43.991	18.22	30.92	-0.02	7.53
44.020	18.22	30.92	0.10	7.64
44.050	18.22	30.92	0.10	7.64
44.080	18.22	30.92	0.10	7.64
44.110	18.22	30.92	0.01	7.55
44.139	18.22	30.92	0.01	7.55
44.169	18.23	30.93	0.01	7.55
44.199	18.23	30.93	0.05	7.59
44.229	18.23	30.93	0.05	7.59
44.259	18.22	30.92	0.05	7.59
44.288	18.22	30.92	0.10	7.64
44.318	18.22	30.92	0.10	7.64
44.348	18.22	30.92	0.10	7.64
44.378	18.22	30.92	-0.01	7.53
44.407	18.22	30.92	-0.01	7.53
44.437	18.20	30.90	-0.01	7.53
44.467	18.20	30.90	0.10	7.64
44.497	18.20	30.90	0.10	7.64
44.526	18.22	30.92	0.10	7.64
44.556	18.22	30.92	0.01	7.55
44.586	18.22	30.92	0.01	7.55
44.616	18.19	30.89	0.01	7.55
44.645	18.19	30.89	0.05	7.59
44.675	18.19	30.89	0.05	7.59
44.705	18.19	30.89	0.05	7.59
44.735	18.19	30.89	0.10	7.64
44.764	18.19	30.89	0.10	7.64
44.794	18.26	30.97	0.10	7.64
44.824	18.26	30.97	-0.01	7.53
44.854	18.26	30.97	-0.01	7.53
44.884	18.27	30.98	-0.01	7.53
44.913	18.27	30.98	0.10	7.64
44.943	18.27	30.98	0.10	7.64
44.973	18.21	30.92	0.10	7.64
45.003	18.21	30.92	0.01	7.55
45.032	18.21	30.92	0.01	7.55
45.062	18.20	30.90	0.01	7.55
45.092	18.20	30.90	0.04	7.59
45.122	18.20	30.90	0.04	7.59
45.151	18.19	30.89	0.04	7.59
45.181	18.19	30.89	0.10	7.64
45.211	18.19	30.89	0.10	7.64
45.241	18.21	30.92	0.10	7.64
45.270	18.21	30.92	-0.01	7.53
45.300	18.21	30.92	-0.01	7.53
45.330	18.22	30.92	-0.01	7.53
45.360	18.22	30.92	0.10	7.64
45.390	18.22	30.92	0.10	7.64
45.419	18.18	30.89	0.10	7.64
45.449	18.18	30.89	0.01	7.55
45.479	18.18	30.89	0.01	7.55
45.509	18.18	30.89	0.01	7.55
45.538	18.18	30.89	0.05	7.59
45.568	18.18	30.89	0.05	7.59
45.598	18.17	30.87	0.05	7.59
45.628	18.17	30.87	0.10	7.64
45.657	18.17	30.87	0.10	7.64
45.687	18.18	30.89	0.10	7.64
45.717	18.18	30.89	-0.01	7.53
45.747	18.18	30.89	-0.01	7.53
45.776	18.23	30.93	-0.01	7.53
45.806	18.23	30.93	0.10	7.64
45.836	18.23	30.93	0.10	7.64
45.866	18.25	30.95	0.10	7.64
45.895	18.25	30.95	0.01	7.55
45.925	18.25	30.95	0.01	7.55
45.955	18.20	30.90	0.01	7.55
45.985	18.20	30.90	0.05	7.59
46.014	18.20	30.90	0.05	7.59
46.044	18.23	30.93	0.05	7.59
46.074	18.23	30.93	0.09	7.64
46.104	18.23	30.93	0.09	7.64
46.134	18.22	30.92	0.09	7.64
46.163	18.22	30.92	-0.01	7.53
46.193	18.22	30.92	-0.01	7.53
46.223	18.25	30.96	-0.01	7.53
46.253	18.25	30.96	0.10	7.64
46.282	18.25	30.96	0.10	7.64
46.312	18.26	30.96	0.10	7.64
46.342	18.26	30.96	0.01	7.55
46.372	18.26	30.96	0.01	7.55
46.401	18.20	30.90	0.01	7.55
46.431	18.20	30.90	0.05	7.59
46.461	18.20	30.90	0.05	7.59
46.491	18.19	30.89	0.05	7.59
46.520	18.19	30.89	0.09	7.63
46.550	18.19	30.89	0.09	7.63
46.580	18.26	30.97	0.09	7.63
46.610	18.26	30.97	-0.02	7.52
46.639	18.26	30.97	-0.02	7.52
46.669	18.29	30.99	-0.02	7.52
46.699	18.29	30.99	0.10	7.64
46.729	18.29	30.99	0.10	7.64
46.759	18.32	31.03	0.10	7.64
46.788	18.32	31.03	0.01	7.55
46.818	18.32	31.03	0.01	7.55
46.848	18.35	31.05	0.01	7.55
46.878	18.35	31.05	0.05	7.60
46.907	18.35	31.05	0.05	7.60
46.937	18.37	31.07	0.05	7.60
46.967	18.37	31.07	0.09	7.63
46.997	18.37	31.07	0.09	7.63
47.026	18.34	31.04	0.09	7.63
47.056	18.34	31.04	-0.01	7.53
47.086	18.34	31.04	-0.01	7.53
47.116	18.38	31.09	-0.01	7.53
47.145	18.38	31.09	0.11	7.65
47.175	18.38	31.09	0.11	7.65
47.205	18.42	31.13	0.11	7.65
47.235	18.42	31.13	0.01	7.55
47.265	18.42	31.13	0.01	7.55
47.294	18.37	31.08	0.01	7.55
47.324	18.37	31.08	0.05	7.59
47.354	18.37	31.08	0.05	7.59
47.384	18.36	31.06	0.05	7.59
47.413	18.36	31.06	0.09	7.63
47.443	18.36	31.06	0.09	7.63
47.473	18.37	31.07	0.09	7.63
47.503	18.37	31.07	-0.02	7.53
47.532	18.37	31.07	-0.02	7.53
47.562	18.41	31.12	-0.02	7.53
47.592	18.41	31.12	0.10	7.64
47.622	18.41	31.12	0.10	7.64
47.651	18.46	31.16	0.10	7.64
47.681	18.46	31.16	0.01	7.55
47.711	18.46	31.16	0.01	7.55
47.741	18.51	31.21	0.01	7.55
47.770	18.51	31.21	0.05	7.59
47.800	18.51	31.21	0.05	7.59
47.830	18.98	31.68	0.05	7.59
47.860	18.98	31.68	0.09	7.63
47.890	18.98	31.68	0.09	7.63
47.919	18.59	31.29	0.09	7.63
47.949	18.59	31.29	-0.01	7.53
47.979	18.59	31.29	-0.01	7.53
48.009	18.60	31.30	-0.01	7.53
48.038	18.60	31.30	0.10	7.64
48.068	18.60	31.30	0.10	7.64
48.098	18.49	31.19	0.10	7.64
48.128	18.49	31.19	0.01	7.55
48.157	18.49	31.19	0.01	7.55
48.187	18.34	31.04	0.01	7.55
48.217	18.34	31.04	0.05	7.60
48.247	18.34	31.04	0.05	7.60
48.276	18.29	30.99	0.05	7.60
48.306	18.29	30.99	0.09	7.63
48.336	18.29	30.99	0.09	7.63
48.366	18.32	31.02	0.09	7.63
48.395	18.32	31.02	-0.01	7.53
48.425	18.32	31.02	-0.01	7.53
48.455	18.39	31.09	-0.01	7.53
48.485	18.39	31.09	0.10	7.64
48.515	18.39	31.09	0.10	7.64
48.544	18.44	31.15	0.10	7.64
48.574	18.44	31.15	0.01	7.55
48.604	18.44	31.15	0.01	7.55
48.634	18.66	31.36	0.01	7.55
48.663	18.66	31.36	0.06	7.60
48.693	18.66	31.36	0.06	7.60
48.723	18.60	31.31	0.06	7.60
48.753	18.60	31.31	0.09	7.63
48.782	18.60	31.31	0.09	7.63
48.812	18.68	31.39	0.09	7.63
48.842	18.68	31.39	-0.01	7.53
48.872	18.68	31.39	-0.01	7.53
48.901	18.60	31.30	-0.01	7.53
48.931	18.60	31.30	0.10	7.64
48.961	18.60	31.30	0.10	7.64
48.991	18.53	31.24	0.10	7.64
49.020	18.53	31.24	0.01	7.55
49.050	18.53	31.24	0.01	7.55
49.080	18.51	31.22	0.01	7.55
49.110	18.51	31.22	0.06	7.60
49.140	18.51	31.22	0.06	7.60
49.169	18.54	31.25	0.06	7.60
49.199	18.54	31.25	0.09	7.63
49.229	18.54	31.25	0.09	7.63
49.259	18.59	31.29	0.09	7.63
49.288	18.59	31.29	-0.01	7.53
49.318	18.59	31.29	-0.01	7.53
49.348	18.54	31.24	-0.01	7.53
49.378	18.54	31.24	0.10	7.64
49.407	18.54	31.24	0.10	7.64
49.437	18.46	31.16	0.10	7.64
49.467	18.46	31.16	0.01	7.55
49.497	18.46	31.16	0.01	7.55
49.526	18.45	31.15	0.01	7.55
49.556	18.45	31.15	0.06	7.60
49.586	18.45	31.15	0.06	7.60
49.616	18.43	31.13	0.06	7.60
49.645	18.43	31.13	0.08	7.63
49.675	18.43	31.13	0.08	7.63
49.705	18.43	31.13	0.08	7.63
49.735	18.43	31.13	-0.01	7.53
49.765	18.43	31.13	-0.01	7.53
49.794	18.41	31.11	-0.01	7.53
49.824	18.41	31.11	0.10	7.65
49.854	18.41	31.11	0.10	7.65
49.884	18.43	31.13	0.10	7.65
49.913	18.43	31.13	0.01	7.55
49.943	18.43	31.13	0.01	7.55
49.973	18.44	31.14	0.01	7.55
50.003	18.44	31.14	0.06	7.60
50.032	18.44	31.14	0.06	7.60
50.062	18.42	31.12	0.06	7.60
50.092	18.42	31.12	0.09	7.63
50.122	18.42	31.12	0.09	7.63
50.151	18.45	31.15	0.09	7.63
50.181	18.45	31.15	-0.01	7.53
50.211	18.45	31.15	-0.01	7.53
50.241	18.45	31.15	-0.01	7.53
50.270	18.45	31.15	0.10	7.64
50.300	18.45	31.15	0.10	7.64
50.330	18.47	31.17	0.10	7.64
50.360	18.47	31.17	0.01	7.55
50.390	18.47	31.17	0.01	7.55
50.419	18.58	31.28	0.01	7.55
50.449	18.58	31.28	0.06	7.60
50.479	18.58	31.28	0.06	7.60
50.509	18.94	31.64	0.06	7.60
50.538	18.94	31.64	0.09	7.63
50.568	18.94	31.64	0.09	7.63
50.598	18.46	31.16	0.09	7.63
50.628	18.46	31.16	-0.01	7.53
50.657	18.46	31.16	-0.01	7.53
50.687	18.42	31.12	-0.01	7.53
50.717	18.42	31.12	0.10	7.65
50.747	18.42	31.12	0.10	7.65
50.776	18.38	31.08	0.10	7.65
50.806	18.38	31.08	0.01	7.55
50.836	18.38	31.08	0.01	7.55
50.866	18.41	31.11	0.01	7.55
50.895	18.41	31.11	0.06	7.60
50.925	18.41	31.11	0.06	7.60
50.955	18.55	31.25	0.06	7.60
50.985	18.55	31.25	0.08	7.62
51.015	18.55	31.25	0.08	7.62
51.044	18.59	31.29	0.08	7.62
51.074	18.59	31.29	-0.01	7.53
51.104	18.59	31.29	-0.01	7.53
51.134	18.50	31.20	-0.01	7.53
51.163	18.50	31.20	0.10	7.65
51.193	18.50	31.20	0.10	7.65
51.223	18.35	31.05	0.10	7.65
51.253	18.35	31.05	0.00	7.55
51.282	18.35	31.05	0.00	7.55
51.312	18.40	31.11	0.00	7.55
51.342	18.40	31.11	0.06	7.60
51.372	18.40	31.11	0.06	7.60
51.401	18.46	31.16	0.06	7.60
51.431	18.46	31.16	0.08	7.62
51.461	18.46	31.16	0.08	7.62
51.491	18.40	31.11	0.08	7.62
51.520	18.40	31.11	-0.01	7.53
51.550	18.40	31.11	-0.01	7.53
51.580	18.43	31.14	-0.01	7.53
51.610	18.43	31.14	0.10	7.64
51.640	18.43	31.14	0.10	7.64
51.669	18.50	31.20	0.10	7.64
51.699	18.50	31.20	0.01	7.55
51.729	18.50	31.20	0.01	7.55
51.759	18.40	31.10	0.01	7.55
51.788	18.40	31.10	0.06	7.60
51.818	18.40	31.10	0.06	7.60
51.848	18.36	31.06	0.06	7.60
51.878	18.36	31.06	0.08	7.62
51.907	18.36	31.06	0.08	7.62
51.937	18.31	31.02	0.08	7.62
51.967	18.31	31.02	-0.01	7.53
51.997	18.31	31.02	-0.01	7.53
52.026	18.24	30.95	-0.01	7.53
52.056	18.24	30.95	0.10	7.64
52.086	18.24	30.95	0.10	7.64
52.116	18.27	30.97	0.10	7.64
52.145	18.27	30.97	0.00	7.55
52.175	18.27	30.97	0.00	7.55
52.205	18.30	31.00	0.00	7.55
52.235	18.30	31.00	0.07	7.61
52.265	18.30	31.00	0.07	7.61
52.294	18.35	31.05	0.07	7.61
52.324	18.35	31.05	0.07	7.62
52.354	18.35	31.05	0.07	7.62
52.384	18.35	31.05	0.07	7.62
52.413	18.35	31.05	-0.01	7.53
52.443	18.35	31.05	-0.01	7.53
52.473	18.34	31.04	-0.01	7.53
52.503	18.34	31.04	0.10	7.64
52.532	18.34	31.04	0.10	7.64
52.562	18.33	31.03	0.10	7.64
52.592	18.33	31.03	0.00	7.55
52.622	18.33	31.03	0.00	7.55
52.651	18.28	30.98	0.00	7.55
52.681	18.28	30.98	0.06	7.61
52.711	18.28	30.98	0.06	7.61
52.741	18.34	31.05	0.06	7.61
52.770	18.34	31.05	0.07	7.62
52.800	18.34	31.05	0.07	7.62
52.830	18.33	31.03	0.07	7.62
52.860	18.33	31.03	-0.01	7.53
52.890	18.33	31.03	-0.01	7.53
52.919	18.26	30.96	-0.01	7.53
52.949	18.26	30.96	0.11	7.65
52.979	18.26	30.96	0.11	7.65
53.009	18.27	30.98	0.11	7.65
53.038	18.27	30.98	0.00	7.54
53.068	18.27	30.98	0.00	7.54
53.098	18.26	30.96	0.00	7.54
53.128	18.26	30.96	0.07	7.61
53.157	18.26	30.96	0.07	7.61
53.187	18.30	31.01	0.07	7.61
53.217	18.30	31.01	0.07	7.62
53.247	18.30	31.01	0.07	7.62
53.276	18.35	31.05	0.07	7.62
53.306	18.35	31.05	-0.01	7.53
53.336	18.35	31.05	-0.01	7.53
53.366	18.33	31.03	-0.01	7.53
53.395	18.33	31.03	0.10	7.65
53.425	18.33	31.03	0.10	7.65
53.455	18.34	31.04	0.10	7.65
53.485	18.34	31.04	0.00	7.55
53.515	18.34	31.04	0.00	7.55
53.544	18.32	31.02	0.00	7.55
53.574	18.32	31.02	0.07	7.61
53.604	18.32	31.02	0.07	7.61
53.634	18.31	31.01	0.07	7.61
53.663	18.31	31.01	0.07	7.62
53.693	18.31	31.01	0.07	7.62
53.723	18.28	30.98	0.07	7.62
53.753	18.28	30.98	-0.01	7.53
53.782	18.28	30.98	-0.01	7.53
53.812	18.28	30.98	-0.01	7.53
53.842	18.28	30.98	0.11	7.65
53.872	18.28	30.98	0.11	7.65
53.901	18.27	30.98	0.11	7.65
53.931	18.27	30.98	0.00	7.55
53.961	18.27	30.98	0.00	7.55
53.991	18.28	30.98	0.00	7.55
54.020	18.28	30.98	0.07	7.61
54.050	18.28	30.98	0.07	7.61
54.080	18.31	31.01	0.07	7.61
54.110	18.31	31.01	0.07	7.61
54.140	18.31	31.01	0.07	7.61
54.169	18.34	31.04	0.07	7.61
54.199	18.34	31.04	-0.01	7.53
54.229	18.34	31.04	-0.01	7.53
54.259	18.35	31.05	-0.01	7.53
54.288	18.35	31.05	0.10	7.65
54.318	18.35	31.05	0.10	7.65
54.348	18.35	31.05	0.10	7.65
54.378	18.35	31.05	0.00	7.54
54.407	18.35	31.05	0.00	7.54
54.437	18.35	31.05	0.00	7.54
54.467	18.35	31.05	0.07	7.61
54.497	18.35	31.05	0.07	7.61
54.526	18.33	31.03	0.07	7.61
54.556	18.33	31.03	0.07	7.61
54.586	18.33	31.03	0.07	7.61
54.616	18.37	31.08	0.07	7.61
54.645	18.37	31.08	-0.01	7.53
54.675	18.37	31.08	-0.01	7.53
54.705	18.37	31.07	-0.01	7.53
54.735	18.37	31.07	0.10	7.64
54.765	18.37	31.07	0.10	7.64
54.794	18.34	31.04	0.10	7.64
54.824	18.34	31.04	0.00	7.55
54.854	18.34	31.04	0.00	7.55
54.884	18.35	31.05	0.00	7.55
54.913	18.35	31.05	0.07	7.61
54.943	18.35	31.05	0.07	7.61
54.973	18.42	31.12	0.07	7.61
55.003	18.42	31.12	0.07	7.61
55.032	18.42	31.12	0.07	7.61
55.062	18.44	31.14	0.07	7.61
55.092	18.44	31.14	-0.01	7.53
55.122	18.44	31.14	-0.01	7.53
55.151	18.42	31.13	-0.01	7.53
55.181	18.42	31.13	0.11	7.65
55.211	18.42	31.13	0.11	7.65
55.241	18.39	31.09	0.11	7.65
55.270	18.39	31.09	0.00	7.54
55.300	18.39	31.09	0.00	7.54
55.330	18.38	31.08	0.00	7.54
55.360	18.38	31.08	0.07	7.62
55.390	18.38	31.08	0.07	7.62
55.419	18.36	31.06	0.07	7.62
55.449	18.36	31.06	0.06	7.60
55.479	18.36	31.06	0.06	7.60
55.509	18.35	31.05	0.06	7.60
55.538	18.35	31.05	-0.02	7.53
55.568	18.35	31.05	-0.02	7.53
55.598	18.34	31.04	-0.02	7.53
55.628	18.34	31.04	0.11	7.65
55.657	18.34	31.04	0.11	7.65
55.687	18.31	31.02	0.11	7.65
55.717	18.31	31.02	0.00	7.54
55.747	18.31	31.02	0.00	7.54
55.776	18.24	30.94	0.00	7.54
55.806	18.24	30.94	0.07	7.62
55.836	18.24	30.94	0.07	7.62
55.866	18.28	30.98	0.07	7.62
55.895	18.28	30.98	0.06	7.60
55.925	18.28	30.98	0.06	7.60
55.955	18.29	30.99	0.06	7.60
55.985	18.29	30.99	-0.01	7.53
56.014	18.29	30.99	-0.01	7.53
56.044	18.34	31.04	-0.01	7.53
56.074	18.34	31.04	0.11	7.65
56.104	18.34	31.04	0.11	7.65
56.133	18.35	31.05	0.11	7.65
56.163	18.35	31.05	-0.00	7.54
56.193	18.35	31.05	-0.00	7.54
56.223	18.39	31.09	-0.00	7.54
56.253	18.39	31.09	0.07	7.62
56.282	18.39	31.09	0.07	7.62
56.312	18.38	31.08	0.07	7.62
56.342	18.38	31.08	0.06	7.60
56.372	18.38	31.08	0.06	7.60
56.401	18.37	31.07	0.06	7.60
56.431	18.37	31.07	-0.02	7.53
56.461	18.37	31.07	-0.02	7.53
56.491	18.43	31.13	-0.02	7.53
56.520	18.43	31.13	0.11	7.65
56.550	18.43	31.13	0.11	7.65
56.580	18.41	31.11	0.11	7.65
56.610	18.41	31.11	-0.00	7.54
56.639	18.41	31.11	-0.00	7.54
56.669	18.36	31.07	-0.00	7.54
56.699	18.36	31.07	0.07	7.62
56.729	18.36	31.07	0.07	7.62
56.758	18.33	31.03	0.07	7.62
56.788	18.33	31.03	0.06	7.60
56.818	18.33	31.03	0.06	7.60
56.848	18.28	30.99	0.06	7.60
56.878	18.28	30.99	-0.01	7.53
56.907	18.28	30.99	-0.01	7.53
56.937	18.30	31.00	-0.01	7.53
56.967	18.30	31.00	0.10	7.64
56.997	18.30	31.00	0.10	7.64
57.026	18.30	31.00	0.10	7.64
57.056	18.30	31.00	-0.00	7.54
57.086	18.30	31.00	-0.00	7.54
57.116	18.33	31.04	-0.00	7.54
57.145	18.33	31.04	0.07	7.62
57.175	18.33	31.04	0.07	7.62
57.205	18.35	31.05	0.07	7.62
57.235	18.35	31.05	0.06	7.60
57.264	18.35	31.05	0.06	7.60
57.294	18.31	31.01	0.06	7.60
57.324	18.31	31.01	-0.01	7.53
57.354	18.31	31.01	-0.01	7.53
57.383	18.33	31.03	-0.01	7.53
57.413	18.33	31.03	0.10	7.64
57.443	18.33	31.03	0.10	7.64
57.473	18.36	31.06	0.10	7.64
57.503	18.36	31.06	-0.00	7.54
57.532	18.36	31.06	-0.00	7.54
57.562	18.29	31.00	-0.00	7.54
57.592	18.29	31.00	0.07	7.62
57.622	18.29	31.00	0.07	7.62
57.651	18.24	30.95	0.07	7.62
57.681	18.24	30.95	0.05	7.59
57.711	18.24	30.95	0.05	7.59
57.741	18.23	30.93	0.05	7.59
57.770	18.23	30.93	-0.01	7.53
57.800	18.23	30.93	-0.01	7.53
57.830	18.30	31.01	-0.01	7.53
57.860	18.30	31.01	0.11	7.65
57.889	18.30	31.01	0.11	7.65
57.919	18.36	31.07	0.11	7.65
57.949	18.36	31.07	-0.00	7.54
57.979	18.36	31.07	-0.00	7.54
58.008	18.38	31.08	-0.00	7.54
58.038	18.38	31.08	0.08	7.62
58.068	18.38	31.08	0.08	7.62
58.098	18.35	31.06	0.08	7.62
58.128	18.35	31.06	0.05	7.59
58.157	18.35	31.06	0.05	7.59
58.187	18.32	31.03	0.05	7.59
58.217	18.32	31.03	-0.01	7.53
58.247	18.32	31.03	-0.01	7.53
58.276	18.31	31.02	-0.01	7.53
58.306	18.31	31.02	0.10	7.64
58.336	18.31	31.02	0.10	7.64
58.366	18.37	31.08	0.10	7.64
58.395	18.37	31.08	-0.01	7.54
58.425	18.37	31.08	-0.01	7.54
58.455	18.37	31.08	-0.01	7.54
58.485	18.37	31.08	0.07	7.62
58.514	18.37	31.08	0.07	7.62
58.544	18.35	31.06	0.07	7.62
58.574	18.35	31.06	0.05	7.59
58.604	18.35	31.06	0.05	7.59
58.633	18.38	31.09	0.05	7.59
58.663	18.38	31.09	-0.01	7.53
58.693	18.38	31.09	-0.01	7.53
58.723	18.44	31.14	-0.01	7.53
58.752	18.44	31.14	0.10	7.65
58.782	18.44	31.14	0.10	7.65
58.812	18.41	31.11	0.10	7.65
58.842	18.41	31.11	-0.01	7.53
58.872	18.41	31.11	-0.01	7.53
58.901	18.36	31.06	-0.01	7.53
58.931	18.36	31.06	0.08	7.62
58.961	18.36	31.06	0.08	7.62
58.991	18.37	31.08	0.08	7.62
59.020	18.37	31.08	0.04	7.59
59.050	18.37	31.08	0.04	7.59
59.080	18.38	31.09	0.04	7.59
59.110	18.38	31.09	-0.01	7.53
59.139	18.38	31.09	-0.01	7.53
59.169	18.34	31.04	-0.01	7.53
59.199	18.34	31.04	0.10	7.64
59.229	18.34	31.04	0.10	7.64
59.258	18.35	31.05	0.10	7.64
59.288	18.35	31.05	-0.00	7.54
59.318	18.35	31.05	-0.00	7.54
59.348	18.36	31.07	-0.00	7.54
59.378	18.36	31.07	0.08	7.62
59.407	18.36	31.07	0.08	7.62
59.437	18.36	31.06	0.08	7.62
59.467	18.36	31.06	0.04	7.58
59.497	18.36	31.06	0.04	7.58
59.526	18.39	31.09	0.04	7.58
59.556	18.39	31.09	-0.00	7.54
59.586	18.39	31.09	-0.00	7.54
59.616	18.36	31.06	-0.00	7.54
59.645	18.36	31.06	0.10	7.65
59.675	18.36	31.06	0.10	7.65
59.705	18.40	31.10	0.10	7.65
59.735	18.40	31.10	-0.01	7.53
59.764	18.40	31.10	-0.01	7.53
59.794	18.41	31.11	-0.01	7.53
59.824	18.41	31.11	0.08	7.62
59.854	18.41	31.11	0.08	7.62
59.883	18.40	31.10	0.08	7.62
59.913	18.40	31.10	0.04	7.58
59.943	18.40	31.10	0.04	7.58
59.973	18.42	31.13	0.04	7.58
60.002	18.42	31.13	-0.00	7.54
60.032	18.42	31.13	-0.00	7.54
60.062	18.39	31.09	-0.00	7.54
60.092	18.39	31.09	0.10	7.64
60.122	18.39	31.09	0.10	7.64
60.151	18.35	31.05	0.10	7.64
60.181	18.35	31.05	-0.01	7.53
60.211	18.35	31.05	-0.01	7.53
60.241	18.40	31.11	-0.01	7.53
60.270	18.40	31.11	0.08	7.63
60.300	18.40	31.11	0.08	7.63
60.330	18.39	31.09	0.08	7.63
60.360	18.39	31.09	0.04	7.58
60.389	18.39	31.09	0.04	7.58
60.419	18.36	31.06	0.04	7.58
60.449	18.36	31.06	0.00	7.54
60.479	18.36	31.06	0.00	7.54
60.508	18.35	31.05	0.00	7.54
60.538	18.35	31.05	0.11	7.65
60.568	18.35	31.05	0.11	7.65
60.598	18.37	31.07	0.11	7.65
60.627	18.37	31.07	-0.01	7.53
60.657	18.37	31.07	-0.01	7.53
60.687	18.40	31.10	-0.01	7.53
60.717	18.40	31.10	0.08	7.62
60.747	18.40	31.10	0.08	7.62
60.776	18.38	31.08	0.08	7.62
60.806	18.38	31.08	0.03	7.58
60.836	18.38	31.08	0.03	7.58
60.866	18.38	31.08	0.03	7.58
60.895	18.38	31.08	0.01	7.55
60.925	18.38	31.08	0.01	7.55
60.955	18.40	31.11	0.01	7.55
60.985	18.40	31.11	0.10	7.64
61.014	18.40	31.11	0.10	7.64
61.044	18.37	31.07	0.10	7.64
61.074	18.37	31.07	-0.01	7.53
61.104	18.37	31.07	-0.01	7.53
61.133	18.40	31.10	-0.01	7.53
61.163	18.40	31.10	0.08	7.63
61.193	18.40	31.10	0.08	7.63
61.223	18.37	31.08	0.08	7.63
61.252	18.37	31.08	0.03	7.57
61.282	18.37	31.08	0.03	7.57
61.312	18.36	31.07	0.03	7.57
61.342	18.36	31.07	0.01	7.55
61.372	18.36	31.07	0.01	7.55
61.401	18.39	31.09	0.01	7.55
61.431	18.39	31.09	0.10	7.65
61.461	18.39	31.09	0.10	7.65
61.491	18.40	31.11	0.10	7.65
61.520	18.40	31.11	-0.01	7.53
61.550	18.40	31.11	-0.01	7.53
61.580	18.45	31.15	-0.01	7.53
61.610	18.45	31.15	0.08	7.63
61.639	18.45	31.15	0.08	7.63
61.669	18.40	31.10	0.08	7.63
61.699	18.40	31.10	0.02	7.57
61.729	18.40	31.10	0.02	7.57
61.758	18.44	31.14	0.02	7.57
61.788	18.44	31.14	0.01	7.55
61.818	18.44	31.14	0.01	7.55
61.848	18.46	31.16	0.01	7.55
61.877	18.46	31.16	0.10	7.65
61.907	18.46	31.16	0.10	7.65
61.937	18.44	31.14	0.10	7.65
61.967	18.44	31.14	-0.02	7.53
61.997	18.44	31.14	-0.02	7.53
62.026	18.46	31.16	-0.02	7.53
62.056	18.46	31.16	0.09	7.63
62.086	18.46	31.16	0.09	7.63
62.116	18.44	31.15	0.09	7.63
62.145	18.44	31.15	0.02	7.57
62.175	18.44	31.15	0.02	7.57
62.205	18.43	31.14	0.02	7.57
62.235	18.43	31.14	0.02	7.56
62.264	18.43	31.14	0.02	7.56
62.294	18.44	31.14	0.02	7.56
62.324	18.44	31.14	0.10	7.64
62.354	18.44	31.14	0.10	7.64
62.383	18.42	31.12	0.10	7.64
62.413	18.42	31.12	-0.02	7.53
62.443	18.42	31.12	-0.02	7.53
62.473	18.46	31.16	-0.02	7.53
62.502	18.46	31.16	0.09	7.63
62.532	18.46	31.16	0.09	7.63
62.562	18.52	31.23	0.09	7.63
62.592	18.52	31.23	0.02	7.56
62.622	18.52	31.23	0.02	7.56
62.651	18.35	31.05	0.02	7.56
62.681	18.35	31.05	0.02	7.56
62.711	18.35	31.05	0.02	7.56
62.741	18.35	31.06	0.02	7.56
62.770	18.35	31.06	0.10	7.64
62.800	18.35	31.06	0.10	7.64
62.830	18.32	31.03	0.10	7.64
62.860	18.32	31.03	-0.01	7.53
62.889	18.32	31.03	-0.01	7.53
62.919	18.30	31.00	-0.01	7.53
62.949	18.30	31.00	0.09	7.63
62.979	18.30	31.00	0.09	7.63
63.008	18.34	31.05	0.09	7.63
63.038	18.34	31.05	0.02	7.56
63.068	18.34	31.05	0.02	7.56
63.098	18.37	31.07	0.02	7.56
63.128	18.37	31.07	0.03	7.57
63.157	18.37	31.07	0.03	7.57
63.187	18.35	31.05	0.03	7.57
63.217	18.35	31.05	0.10	7.65
63.247	18.35	31.05	0.10	7.65
63.276	18.38	31.08	0.10	7.65
63.306	18.38	31.08	-0.01	7.53
63.336	18.38	31.08	-0.01	7.53
63.366	18.43	31.13	-0.01	7.53
63.395	18.43	31.13	0.10	7.64
63.425	18.43	31.13	0.10	7.64
63.455	18.42	31.13	0.10	7.64
63.485	18.42	31.13	0.02	7.56
63.514	18.42	31.13	0.02	7.56
63.544	18.42	31.12	0.02	7.56
63.574	18.42	31.12	0.03	7.58
63.604	18.42	31.12	0.03	7.58
63.633	18.41	31.12	0.03	7.58
63.663	18.41	31.12	0.10	7.64
63.693	18.41	31.12	0.10	7.64
63.723	18.40	31.10	0.10	7.64
63.753	18.40	31.10	-0.01	7.53
63.782	18.40	31.10	-0.01	7.53
63.812	18.38	31.09	-0.01	7.53
63.842	18.38	31.09	0.10	7.64
63.872	18.38	31.09	0.10	7.64
63.901	18.36	31.07	0.10	7.64
63.931	18.36	31.07	0.01	7.56
63.961	18.36	31.07	0.01	7.56
63.991	18.33	31.03	0.01	7.56
64.020	18.33	31.03	0.04	7.58
64.050	18.33	31.03	0.04	7.58
64.080	18.29	30.99	0.04	7.58
64.110	18.29	30.99	0.10	7.64
64.139	18.29	30.99	0.10	7.64
64.169	18.32	31.02	0.10	7.64
64.199	18.32	31.02	-0.01	7.53
64.229	18.32	31.02	-0.01	7.53
64.259	18.34	31.04	-0.01	7.53
64.288	18.34	31.04	0.10	7.64
64.318	18.34	31.04	0.10	7.64
64.348	18.39	31.09	0.10	7.64
64.378	18.39	31.09	0.01	7.55
64.407	18.39	31.09	0.01	7.55
64.437	18.42	31.12	0.01	7.55
64.467	18.42	31.12	0.04	7.59
64.497	18.42	31.12	0.04	7.59
64.526	18.40	31.11	0.04	7.59
64.556	18.40	31.11	0.10	7.64
64.586	18.40	31.11	0.10	7.64
64.616	18.40	31.10	0.10	7.64
64.645	18.40	31.10	-0.02	7.53
64.675	18.40	31.10	-0.02	7.53
64.705	18.40	31.10	-0.02	7.53
64.735	18.40	31.10	0.10	7.64
64.764	18.40	31.10	0.10	7.64
64.794	18.42	31.12	0.10	7.64
64.824	18.42	31.12	0.01	7.55
64.854	18.42	31.12	0.01	7.55
64.884	18.42	31.12	0.01	7.55
64.913	18.42	31.12	0.05	7.59
64.943	18.42	31.12	0.05	7.59
64.973	18.44	31.14	0.05	7.59
65.003	18.44	31.14	0.10	7.64
65.032	18.44	31.14	0.10	7.64
65.062	18.45	31.15	0.10	7.64
65.092	18.45	31.15	-0.01	7.53
65.122	18.45	31.15	-0.01	7.53
65.151	18.45	31.15	-0.01	7.53
65.181	18.45	31.15	0.10	7.64
65.211	18.45	31.15	0.10	7.64
65.241	18.45	31.15	0.10	7.64
65.270	18.45	31.15	0.01	7.55
65.300	18.45	31.15	0.01	7.55
65.330	18.44	31.14	0.01	7.55
65.360	18.44	31.14	0.05	7.59
65.389	18.44	31.14	0.05	7.59
65.419	18.44	31.15	0.05	7.59
65.449	18.44	31.15	0.09	7.63
65.479	18.44	31.15	0.09	7.63
65.508	18.61	31.31	0.09	7.63
65.538	18.61	31.31	-0.01	7.53
65.568	18.61	31.31	-0.01	7.53
65.598	18.34	31.05	-0.01	7.53
65.628	18.34	31.05	0.10	7.64
65.657	18.34	31.05	0.10	7.64
65.687	18.32	31.03	0.10	7.64
65.717	18.32	31.03	0.01	7.55
65.747	18.32	31.03	0.01	7.55
65.776	18.41	31.11	0.01	7.55
65.806	18.41	31.11	0.05	7.60
65.836	18.41	31.11	0.05	7.60
65.866	18.50	31.20	0.05	7.60
65.895	18.50	31.20	0.09	7.63
65.925	18.50	31.20	0.09	7.63
65.955	18.49	31.19	0.09	7.63
65.985	18.49	31.19	-0.01	7.53
66.014	18.49	31.19	-0.01	7.53
66.044	18.42	31.13	-0.01	7.53
66.074	18.42	31.13	0.10	7.65
66.104	18.42	31.13	0.10	7.65
66.134	18.37	31.08	0.10	7.65
66.163	18.37	31.08	0.01	7.55
66.193	18.37	31.08	0.01	7.55
66.223	18.42	31.12	0.01	7.55
66.253	18.42	31.12	0.06	7.60
66.282	18.42	31.12	0.06	7.60
66.312	18.49	31.19	0.06	7.60
66.342	18.49	31.19	0.08	7.62
66.372	18.49	31.19	0.08	7.62
66.401	18.47	31.17	0.08	7.62
66.431	18.47	31.17	-0.01	7.53
66.461	18.47	31.17	-0.01	7.53
66.491	18.48	31.18	-0.01	7.53
66.520	18.48	31.18	0.10	7.64
66.550	18.48	31.18	0.10	7.64
66.580	18.44	31.14	0.10	7.64
66.610	18.44	31.14	0.01	7.55
66.639	18.44	31.14	0.01	7.55
66.669	18.47	31.18	0.01	7.55
66.699	18.47	31.18	0.06	7.60
66.729	18.47	31.18	0.06	7.60
66.759	18.55	31.25	0.06	7.60
66.788	18.55	31.25	0.08	7.63
66.818	18.55	31.25	0.08	7.63
66.848	18.58	31.28	0.08	7.63
66.878	18.58	31.28	-0.01	7.53
66.907	18.58	31.28	-0.01	7.53
66.937	18.63	31.33	-0.01	7.53
66.967	18.63	31.33	0.10	7.65
66.997	18.63	31.33	0.10	7.65
67.026	18.57	31.27	0.10	7.65
67.056	18.57	31.27	0.01	7.55
67.086	18.57	31.27	0.01	7.55
67.116	18.64	31.34	0.01	7.55
67.145	18.64	31.34	0.06	7.61
67.175	18.64	31.34	0.06	7.61
67.205	18.71	31.41	0.06	7.61
67.235	18.71	31.41	0.08	7.62
67.264	18.71	31.41	0.08	7.62
67.294	19.04	31.74	0.08	7.62
67.324	19.04	31.74	-0.01	7.53
67.354	19.04	31.74	-0.01	7.53
67.384	19.35	32.06	-0.01	7.53
67.413	19.35	32.06	0.10	7.65
67.443	19.35	32.06	0.10	7.65
67.473	19.25	31.95	0.10	7.65
67.503	19.25	31.95	0.00	7.55
67.532	19.25	31.95	0.00	7.55
67.562	19.18	31.89	0.00	7.55
67.592	19.18	31.89	0.06	7.61
67.622	19.18	31.89	0.06	7.61
67.651	19.09	31.79	0.06	7.61
67.681	19.09	31.79	0.07	7.62
67.711	19.09	31.79	0.07	7.62
67.741	18.99	31.69	0.07	7.62
67.770	18.99	31.69	-0.01	7.53
67.800	18.99	31.69	-0.01	7.53
67.830	18.90	31.60	-0.01	7.53
67.860	18.90	31.60	0.10	7.64
67.889	18.90	31.60	0.10	7.64
67.919	18.98	31.68	0.10	7.64
67.949	18.98	31.68	0.00	7.55
67.979	18.98	31.68	0.00	7.55
68.009	18.89	31.59	0.00	7.55
68.038	18.89	31.59	0.07	7.61
68.068	18.89	31.59	0.07	7.61
68.098	18.40	31.10	0.07	7.61
68.128	18.40	31.10	0.07	7.61
68.157	18.40	31.10	0.07	7.61
68.187	18.34	31.04	0.07	7.61
68.217	18.34	31.04	-0.01	7.53
68.247	18.34	31.04	-0.01	7.53
68.276	18.35	31.05	-0.01	7.53
68.306	18.35	31.05	0.11	7.65
68.336	18.35	31.05	0.11	7.65
68.366	18.31	31.01	0.11	7.65
68.395	18.31	31.01	0.00	7.54
68.425	18.31	31.01	0.00	7.54
68.455	18.28	30.99	0.00	7.54
68.485	18.28	30.99	0.07	7.61
68.514	18.28	30.99	0.07	7.61
68.544	18.33	31.03	0.07	7.61
68.574	18.33	31.03	0.06	7.60
68.604	18.33	31.03	0.06	7.60
68.634	18.31	31.01	0.06	7.60
68.663	18.31	31.01	-0.01	7.53
68.693	18.31	31.01	-0.01	7.53
68.723	18.31	31.01	-0.01	7.53
68.753	18.31	31.01	0.10	7.64
68.782	18.31	31.01	0.10	7.64
68.812	18.31	31.02	0.10	7.64
68.842	18.31	31.02	0.00	7.54
68.872	18.31	31.02	0.00	7.54
68.901	18.31	31.01	0.00	7.54
68.931	18.31	31.01	0.07	7.62
68.961	18.31	31.01	0.07	7.62
68.991	18.40	31.10	0.07	7.62
69.020	18.40	31.10	0.06	7.60
69.050	18.40	31.10	0.06	7.60
69.080	18.37	31.07	0.06	7.60
69.110	18.37	31.07	-0.01	7.53
69.139	18.37	31.07	-0.01	7.53
69.169	18.38	31.08	-0.01	7.53
69.199	18.38	31.08	0.10	7.64
69.229	18.38	31.08	0.10	7.64
69.258	18.37	31.07	0.10	7.64
69.288	18.37	31.07	-0.00	7.54
69.318	18.37	31.07	-0.00	7.54
69.348	18.36	31.06	-0.00	7.54
69.377	18.36	31.06	0.07	7.62
69.407	18.36	31.06	0.07	7.62
69.437	18.38	31.08	0.07	7.62
69.467	18.38	31.08	0.06	7.60
69.496	18.38	31.08	0.06	7.60
69.526	18.37	31.07	0.06	7.60
69.556	18.37	31.07	-0.01	7.53
69.586	18.37	31.07	-0.01	7.53
69.616	18.34	31.04	-0.01	7.53
69.645	18.34	31.04	0.11	7.65
69.675	18.34	31.04	0.11	7.65
69.705	18.36	31.07	0.11	7.65
69.735	18.36	31.07	-0.01	7.54
69.764	18.36	31.07	-0.01	7.54
69.794	18.32	31.03	-0.01	7.54
69.824	18.32	31.03	0.08	7.62
69.854	18.32	31.03	0.08	7.62
69.883	18.36	31.06	0.08	7.62
69.913	18.36	31.06	0.05	7.59
69.943	18.36	31.06	0.05	7.59
69.973	18.41	31.11	0.05	7.59
70.002	18.41	31.11	-0.01	7.53
70.032	18.41	31.11	-0.01	7.53
70.062	18.39	31.10	-0.01	7.53
70.092	18.39	31.10	0.10	7.65
70.121	18.39	31.10	0.10	7.65
70.151	18.40	31.11	0.10	7.65
70.181	18.40	31.11	-0.01	7.53
70.211	18.40	31.11	-0.01	7.53
70.241	18.39	31.09	-0.01	7.53
70.270	18.39	31.09	0.08	7.62
70.300	18.39	31.09	0.08	7.62
70.330	18.35	31.06	0.08	7.62
70.360	18.35	31.06	0.05	7.59
70.389	18.35	31.06	0.05	7.59
70.419	18.42	31.12	0.05	7.59
70.449	18.42	31.12	-0.01	7.54
70.479	18.42	31.12	-0.01	7.54
70.508	18.39	31.09	-0.01	7.54
70.538	18.39	31.09	0.11	7.65
70.568	18.39	31.09	0.11	7.65
70.598	18.36	31.06	0.11	7.65
70.627	18.36	31.06	-0.01	7.53
70.657	18.36	31.06	-0.01	7.53
70.687	18.41	31.11	-0.01	7.53
70.717	18.41	31.11	0.08	7.62
70.747	18.41	31.11	0.08	7.62
70.776	18.47	31.17	0.08	7.62
70.806	18.47	31.17	0.04	7.59
70.836	18.47	31.17	0.04	7.59
70.866	18.51	31.21	0.04	7.59
70.895	18.51	31.21	-0.01	7.53
70.925	18.51	31.21	-0.01	7.53
70.955	18.52	31.23	-0.01	7.53
70.985	18.52	31.23	0.11	7.65
71.014	18.52	31.23	0.11	7.65
71.044	18.50	31.20	0.11	7.65
71.074	18.50	31.20	-0.01	7.53
71.104	18.50	31.20	-0.01	7.53
71.133	18.45	31.15	-0.01	7.53
71.163	18.45	31.15	0.08	7.62
71.193	18.45	31.15	0.08	7.62
71.223	18.43	31.14	0.08	7.62
71.252	18.43	31.14	0.04	7.58
71.282	18.43	31.14	0.04	7.58
71.312	18.48	31.18	0.04	7.58
71.342	18.48	31.18	-0.00	7.54
71.371	18.48	31.18	-0.00	7.54
71.401	18.48	31.18	-0.00	7.54
71.431	18.48	31.18	0.11	7.65
71.461	18.48	31.18	0.11	7.65
71.491	18.44	31.14	0.11	7.65
71.520	18.44	31.14	-0.01	7.53
71.550	18.44	31.14	-0.01	7.53
71.580	18.50	31.20	-0.01	7.53
71.610	18.50	31.20	0.08	7.62
71.639	18.50	31.20	0.08	7.62
71.669	18.50	31.20	0.08	7.62
71.699	18.50	31.20	0.04	7.58
71.729	18.50	31.20	0.04	7.58
71.758	18.55	31.26	0.04	7.58
71.788	18.55	31.26	0.00	7.54
71.818	18.55	31.26	0.00	7.54
71.848	18.63	31.34	0.00	7.54
71.877	18.63	31.34	0.10	7.64
71.907	18.63	31.34	0.10	7.64
71.937	18.66	31.37	0.10	7.64
71.967	18.66	31.37	-0.01	7.53
71.996	18.66	31.37	-0.01	7.53
72.026	18.65	31.35	-0.01	7.53
72.056	18.65	31.35	0.08	7.62
72.086	18.65	31.35	0.08	7.62
72.115	18.69	31.39	0.08	7.62
72.145	18.69	31.39	0.03	7.57
72.175	18.69	31.39	0.03	7.57
72.205	18.67	31.38	0.03	7.57
72.234	18.67	31.38	0.01	7.55
72.264	18.67	31.38	0.01	7.55
72.294	18.70	31.41	0.01	7.55
72.324	18.70	31.41	0.10	7.64
72.353	18.70	31.41	0.10	7.64
72.383	18.70	31.40	0.10	7.64
72.413	18.70	31.40	-0.01	7.53
72.443	18.70	31.40	-0.01	7.53
72.473	18.70	31.40	-0.01	7.53
72.502	18.70	31.40	0.08	7.62
72.532	18.70	31.40	0.08	7.62
72.562	18.62	31.33	0.08	7.62
72.592	18.62	31.33	0.03	7.57
72.621	18.62	31.33	0.03	7.57
72.651	18.60	31.30	0.03	7.57
72.681	18.60	31.30	0.01	7.55
72.711	18.60	31.30	0.01	7.55
72.740	18.74	31.44	0.01	7.55
72.770	18.74	31.44	0.10	7.64
72.800	18.74	31.44	0.10	7.64
72.830	18.82	31.52	0.10	7.64
72.859	18.82	31.52	-0.01	7.53
72.889	18.82	31.52	-0.01	7.53
72.919	19.05	31.76	-0.01	7.53
72.949	19.05	31.76	0.08	7.63
72.978	19.05	31.76	0.08	7.63
73.008	18.66	31.36	0.08	7.63
73.038	18.66	31.36	0.02	7.57
73.068	18.66	31.36	0.02	7.57
73.098	18.73	31.43	0.02	7.57
73.127	18.73	31.43	0.02	7.56
73.157	18.73	31.43	0.02	7.56
73.187	18.94	31.64	0.02	7.56
73.217	18.94	31.64	0.10	7.64
73.246	18.94	31.64	0.10	7.64
73.276	18.61	31.32	0.10	7.64
73.306	18.61	31.32	-0.01	7.53
73.336	18.61	31.32	-0.01	7.53
73.365	18.60	31.31	-0.01	7.53
73.395	18.60	31.31	0.09	7.63
73.425	18.60	31.31	0.09	7.63
73.455	18.66	31.36	0.09	7.63
73.484	18.66	31.36	0.02	7.56
73.514	18.66	31.36	0.02	7.56
73.544	18.62	31.33	0.02	7.56
73.574	18.62	31.33	0.02	7.56
73.603	18.62	31.33	0.02	7.56
73.633	18.73	31.43	0.02	7.56
73.663	18.73	31.43	0.10	7.65
73.692	18.73	31.43	0.10	7.65
73.722	18.75	31.45	0.10	7.65
73.752	18.75	31.45	-0.02	7.53
73.782	18.75	31.45	-0.02	7.53
73.812	18.78	31.48	-0.02	7.53
73.841	18.78	31.48	0.09	7.63
73.871	18.78	31.48	0.09	7.63
73.901	18.47	31.17	0.09	7.63
73.931	18.47	31.17	0.02	7.56
73.960	18.47	31.17	0.02	7.56
73.990	18.39	31.09	0.02	7.56
74.020	18.39	31.09	0.03	7.57
74.050	18.39	31.09	0.03	7.57
74.079	18.38	31.09	0.03	7.57
74.109	18.38	31.09	0.10	7.64
74.139	18.38	31.09	0.10	7.64
74.169	18.45	31.15	0.10	7.64
74.198	18.45	31.15	-0.02	7.53
74.228	18.45	31.15	-0.02	7.53
74.258	18.45	31.15	-0.02	7.53
74.288	18.45	31.15	0.09	7.63
74.317	18.45	31.15	0.09	7.63
74.347	18.46	31.17	0.09	7.63
74.377	18.46	31.17	0.01	7.56
74.407	18.46	31.17	0.01	7.56
74.437	18.45	31.16	0.01	7.56
74.466	18.45	31.16	0.03	7.57
74.496	18.45	31.16	0.03	7.57
74.526	18.45	31.15	0.03	7.57
74.556	18.45	31.15	0.10	7.64
74.585	18.45	31.15	0.10	7.64
74.615	18.44	31.14	0.10	7.64
74.645	18.44	31.14	-0.01	7.53
74.675	18.44	31.14	-0.01	7.53
74.704	18.46	31.16	-0.01	7.53
74.734	18.46	31.16	0.10	7.64
74.764	18.46	31.16	0.10	7.64
74.794	18.47	31.17	0.10	7.64
74.823	18.47	31.17	0.01	7.55
74.853	18.47	31.17	0.01	7.55
74.883	18.47	31.17	0.01	7.55
74.913	18.47	31.17	0.04	7.58
74.942	18.47	31.17	0.04	7.58
74.972	18.45	31.15	0.04	7.58
75.002	18.45	31.15	0.10	7.64
75.032	18.45	31.15	0.10	7.64
75.062	18.48	31.18	0.10	7.64
75.091	18.48	31.18	-0.01	7.53
75.121	18.48	31.18	-0.01	7.53
75.151	18.44	31.14	-0.01	7.53
75.181	18.44	31.14	0.09	7.64
75.210	18.44	31.14	0.09	7.64
75.240	18.44	31.14	0.09	7.64
75.270	18.44	31.14	0.01	7.56
75.300	18.44	31.14	0.01	7.56
75.329	18.46	31.16	0.01	7.56
75.359	18.46	31.16	0.04	7.58
75.389	18.46	31.16	0.04	7.58
75.419	18.49	31.19	0.04	7.58
75.448	18.49	31.19	0.10	7.64
75.478	18.49	31.19	0.10	7.64
75.508	18.51	31.22	0.10	7.64
75.538	18.51	31.22	-0.01	7.53
75.567	18.51	31.22	-0.01	7.53
75.597	18.54	31.24	-0.01	7.53
75.627	18.54	31.24	0.09	7.64
75.657	18.54	31.24	0.09	7.64
75.687	18.51	31.21	0.09	7.64
75.716	18.51	31.21	0.01	7.55
75.746	18.51	31.21	0.01	7.55
75.776	18.52	31.22	0.01	7.55
75.806	18.52	31.22	0.05	7.59
75.835	18.52	31.22	0.05	7.59
75.865	18.50	31.20	0.05	7.59
75.895	18.50	31.20	0.09	7.64
75.925	18.50	31.20	0.09	7.64
75.954	18.48	31.19	0.09	7.64
75.984	18.48	31.19	-0.01	7.53
76.014	18.48	31.19	-0.01	7.53
76.044	18.50	31.20	-0.01	7.53
76.073	18.50	31.20	0.10	7.64
76.103	18.50	31.20	0.10	7.64
76.133	18.49	31.19	0.10	7.64
76.163	18.49	31.19	0.01	7.55
76.192	18.49	31.19	0.01	7.55
76.222	18.52	31.22	0.01	7.55
76.252	18.52	31.22	0.05	7.59
76.282	18.52	31.22	0.05	7.59
76.312	18.51	31.22	0.05	7.59
76.341	18.51	31.22	0.09	7.63
76.371	18.51	31.22	0.09	7.63
76.401	18.56	31.27	0.09	7.63
76.431	18.56	31.27	-0.02	7.53
76.460	18.56	31.27	-0.02	7.53
76.490	18.54	31.24	-0.02	7.53
76.520	18.54	31.24	0.10	7.65
76.550	18.54	31.24	0.10	7.65
76.579	18.53	31.23	0.10	7.65
76.609	18.53	31.23	0.01	7.55
76.639	18.53	31.23	0.01	7.55
76.669	18.53	31.23	0.01	7.55
76.698	18.53	31.23	0.05	7.60
76.728	18.53	31.23	0.05	7.60
76.758	18.51	31.21	0.05	7.60
76.788	18.51	31.21	0.09	7.63
76.817	18.51	31.21	0.09	7.63
76.847	18.51	31.21	0.09	7.63
76.877	18.51	31.21	-0.01	7.53
76.907	18.51	31.21	-0.01	7.53
76.936	18.48	31.19	-0.01	7.53
76.966	18.48	31.19	0.11	7.65
76.996	18.48	31.19	0.11	7.65
77.026	18.49	31.19	0.11	7.65
77.056	18.49	31.19	0.01	7.55
77.085	18.49	31.19	0.01	7.55
77.115	18.55	31.25	0.01	7.55
77.145	18.55	31.25	0.07	7.61
77.175	18.55	31.25	0.07	7.61
77.204	18.50	31.20	0.07	7.61
77.234	18.50	31.20	0.08	7.62
77.264	18.50	31.20	0.08	7.62
77.294	18.54	31.24	0.08	7.62
77.323	18.54	31.24	-0.01	7.53
77.353	18.54	31.24	-0.01	7.53
77.383	18.59	31.29	-0.01	7.53
77.413	18.59	31.29	0.10	7.65
77.442	18.59	31.29	0.10	7.65
77.472	18.57	31.27	0.10	7.65
77.502	18.57	31.27	0.01	7.55
77.532	18.57	31.27	0.01	7.55
77.561	18.58	31.28	0.01	7.55
77.591	18.58	31.28	0.06	7.61
77.621	18.58	31.28	0.06	7.61
77.651	18.57	31.27	0.06	7.61
77.681	18.57	31.27	0.07	7.62
77.710	18.57	31.27	0.07	7.62
77.740	18.52	31.22	0.07	7.62
77.770	18.52	31.22	-0.01	7.53
77.800	18.52	31.22	-0.01	7.53
77.829	18.57	31.27	-0.01	7.53
77.859	18.57	31.27	0.11	7.65
77.889	18.57	31.27	0.11	7.65
77.919	18.56	31.27	0.11	7.65
77.948	18.56	31.27	0.00	7.55
77.978	18.56	31.27	0.00	7.55
78.008	18.53	31.23	0.00	7.55
78.038	18.53	31.23	0.07	7.61
78.067	18.53	31.23	0.07	7.61
78.097	18.56	31.26	0.07	7.61
78.127	18.56	31.26	0.07	7.62
78.157	18.56	31.26	0.07	7.62
78.187	18.57	31.27	0.07	7.62
78.216	18.57	31.27	-0.01	7.53
78.246	18.57	31.27	-0.01	7.53
78.276	18.62	31.32	-0.01	7.53
78.306	18.62	31.32	0.10	7.65
78.335	18.62	31.32	0.10	7.65
78.365	18.62	31.33	0.10	7.65
78.395	18.62	31.33	0.00	7.55
78.424	18.62	31.33	0.00	7.55
78.454	18.63	31.33	0.00	7.55
78.484	18.63	31.33	0.07	7.62
78.514	18.63	31.33	0.07	7.62
78.543	18.63	31.33	0.07	7.62
78.573	18.63	31.33	0.06	7.61
78.603	18.63	31.33	0.06	7.61
78.633	18.62	31.32	0.06	7.61
78.663	18.62	31.32	-0.01	7.53
78.692	18.62	31.32	-0.01	7.53
78.722	18.64	31.34	-0.01	7.53
78.752	18.64	31.34	0.10	7.64
78.782	18.64	31.34	0.10	7.64
78.811	18.71	31.42	0.10	7.64
78.841	18.71	31.42	-0.00	7.54
78.871	18.71	31.42	-0.00	7.54
78.901	19.37	32.07	-0.00	7.54
78.930	19.37	32.07	0.07	7.61
78.960	19.37	32.07	0.07	7.61
78.990	19.13	31.83	0.07	7.61
79.020	19.13	31.83	0.06	7.60
79.049	19.13	31.83	0.06	7.60
79.079	18.83	31.54	0.06	7.60
79.109	18.83	31.54	-0.02	7.53
79.139	18.83	31.54	-0.02	7.53
79.168	19.02	31.73	-0.02	7.53
79.198	19.02	31.73	0.10	7.64
79.228	19.02	31.73	0.10	7.64
79.258	18.79	31.49	0.10	7.64
79.287	18.79	31.49	-0.00	7.54
79.317	18.79	31.49	-0.00	7.54
79.347	18.92	31.62	-0.00	7.54
79.377	18.92	31.62	0.08	7.62
79.407	18.92	31.62	0.08	7.62
79.436	18.46	31.17	0.08	7.62
79.466	18.46	31.17	0.06	7.60
79.496	18.46	31.17	0.06	7.60
79.526	18.42	31.13	0.06	7.60
79.555	18.42	31.13	-0.02	7.53
79.585	18.42	31.13	-0.02	7.53
79.615	18.38	31.08	-0.02	7.53
79.645	18.38	31.08	0.10	7.64
79.674	18.38	31.08	0.10	7.64
79.704	18.45	31.15	0.10	7.64
79.734	18.45	31.15	-0.00	7.54
79.764	18.45	31.15	-0.00	7.54
79.793	18.43	31.13	-0.00	7.54
79.823	18.43	31.13	0.07	7.62
79.853	18.43	31.13	0.07	7.62
79.883	18.40	31.11	0.07	7.62
79.912	18.40	31.11	0.05	7.59
79.942	18.40	31.11	0.05	7.59
79.972	18.41	31.12	0.05	7.59
80.002	18.41	31.12	-0.01	7.53
80.032	18.41	31.12	-0.01	7.53
80.061	18.37	31.08	-0.01	7.53
80.091	18.37	31.08	0.10	7.65
80.121	18.37	31.08	0.10	7.65
80.151	18.41	31.11	0.10	7.65
80.180	18.41	31.11	-0.01	7.54
80.210	18.41	31.11	-0.01	7.54
80.240	18.41	31.11	-0.01	7.54
80.270	18.41	31.11	0.07	7.62
80.299	18.41	31.11	0.07	7.62
80.329	18.36	31.06	0.07	7.62
80.359	18.36	31.06	0.04	7.59
80.389	18.36	31.06	0.04	7.59
80.418	18.32	31.02	0.04	7.59
80.448	18.32	31.02	-0.00	7.54
80.478	18.32	31.02	-0.00	7.54
80.508	18.31	31.02	-0.00	7.54
80.537	18.31	31.02	0.10	7.65
80.567	18.31	31.02	0.10	7.65
80.597	18.39	31.09	0.10	7.65
80.627	18.39	31.09	-0.01	7.53
80.657	18.39	31.09	-0.01	7.53
80.686	18.38	31.08	-0.01	7.53
80.716	18.38	31.08	0.08	7.62
80.746	18.38	31.08	0.08	7.62
80.776	18.35	31.06	0.08	7.62
80.805	18.35	31.06	0.04	7.58
80.835	18.35	31.06	0.04	7.58
80.865	18.37	31.08	0.04	7.58
80.895	18.37	31.08	-0.00	7.54
80.924	18.37	31.08	-0.00	7.54
80.954	18.39	31.09	-0.00	7.54
80.984	18.39	31.09	0.10	7.65
81.014	18.39	31.09	0.10	7.65
81.043	18.41	31.12	0.10	7.65
81.073	18.41	31.12	-0.01	7.53
81.103	18.41	31.12	-0.01	7.53
81.133	18.44	31.14	-0.01	7.53
81.163	18.44	31.14	0.08	7.62
81.192	18.44	31.14	0.08	7.62
81.222	18.44	31.14	0.08	7.62
81.252	18.44	31.14	0.04	7.58
81.282	18.44	31.14	0.04	7.58
81.311	18.45	31.15	0.04	7.58
81.341	18.45	31.15	0.00	7.55
81.371	18.45	31.15	0.00	7.55
81.401	18.42	31.12	0.00	7.55
81.430	18.42	31.12	0.11	7.65
81.460	18.42	31.12	0.11	7.65
81.490	18.43	31.13	0.11	7.65
81.520	18.43	31.13	-0.01	7.53
81.549	18.43	31.13	-0.01	7.53
81.579	18.45	31.15	-0.01	7.53
81.609	18.45	31.15	0.08	7.62
81.639	18.45	31.15	0.08	7.62
81.668	18.42	31.12	0.08	7.62
81.698	18.42	31.12	0.03	7.57
81.728	18.42	31.12	0.03	7.57
81.758	18.37	31.08	0.03	7.57
81.787	18.37	31.08	0.00	7.55
81.817	18.37	31.08	0.00	7.55
81.847	18.38	31.08	0.00	7.55
81.877	18.38	31.08	0.11	7.65
81.907	18.38	31.08	0.11	7.65
81.936	18.38	31.09	0.11	7.65
81.966	18.38	31.09	-0.01	7.53
81.996	18.38	31.09	-0.01	7.53
82.026	18.39	31.09	-0.01	7.53
82.055	18.39	31.09	0.08	7.63
82.085	18.39	31.09	0.08	7.63
82.115	18.41	31.11	0.08	7.63
82.145	18.41	31.11	0.03	7.57
82.174	18.41	31.11	0.03	7.57
82.204	18.46	31.17	0.03	7.57
82.234	18.46	31.17	0.01	7.55
82.264	18.46	31.17	0.01	7.55
82.293	18.47	31.17	0.01	7.55
82.323	18.47	31.17	0.10	7.65
82.353	18.47	31.17	0.10	7.65
82.383	18.47	31.17	0.10	7.65
82.412	18.47	31.17	-0.01	7.53
82.442	18.47	31.17	-0.01	7.53
82.472	18.51	31.22	-0.01	7.53
82.502	18.51	31.22	0.08	7.63
82.532	18.51	31.22	0.08	7.63
82.561	18.52	31.22	0.08	7.63
82.591	18.52	31.22	0.03	7.57
82.621	18.52	31.22	0.03	7.57
82.651	18.54	31.24	0.03	7.57
82.680	18.54	31.24	0.01	7.55
82.710	18.54	31.24	0.01	7.55
82.740	18.68	31.38	0.01	7.55
82.770	18.68	31.38	0.10	7.65
82.799	18.68	31.38	0.10	7.65
82.829	18.66	31.36	0.10	7.65
82.859	18.66	31.36	-0.01	7.53
82.889	18.66	31.36	-0.01	7.53
82.918	18.76	31.46	-0.01	7.53
82.948	18.76	31.46	0.09	7.63
82.978	18.76	31.46	0.09	7.63
83.008	18.64	31.34	0.09	7.63
83.038	18.64	31.34	0.03	7.57
83.067	18.64	31.34	0.03	7.57
83.097	18.65	31.35	0.03	7.57
83.127	18.65	31.35	0.01	7.55
83.157	18.65	31.35	0.01	7.55
83.186	18.66	31.36	0.01	7.55
83.216	18.66	31.36	0.11	7.65
83.246	18.66	31.36	0.11	7.65
83.276	18.63	31.33	0.11	7.65
83.305	18.63	31.33	-0.01	7.53
83.335	18.63	31.33	-0.01	7.53
83.365	18.61	31.32	-0.01	7.53
83.395	18.61	31.32	0.09	7.63
83.424	18.61	31.32	0.09	7.63
83.454	18.59	31.29	0.09	7.63
83.484	18.59	31.29	0.02	7.57
83.514	18.59	31.29	0.02	7.57
83.543	18.54	31.24	0.02	7.57
83.573	18.54	31.24	0.02	7.56
83.603	18.54	31.24	0.02	7.56
83.633	18.52	31.22	0.02	7.56
83.663	18.52	31.22	0.10	7.65
83.692	18.52	31.22	0.10	7.65
83.722	18.80	31.50	0.10	7.65
83.752	18.80	31.50	-0.01	7.53
83.782	18.80	31.50	-0.01	7.53
83.811	19.41	32.11	-0.01	7.53
83.841	19.41	32.11	0.09	7.63
83.871	19.41	32.11	0.09	7.63
83.901	19.48	32.18	0.09	7.63
83.930	19.48	32.18	0.02	7.56
83.960	19.48	32.18	0.02	7.56
83.990	19.46	32.17	0.02	7.56
84.020	19.46	32.17	0.02	7.56
84.049	19.46	32.17	0.02	7.56
84.079	19.35	32.05	0.02	7.56
84.109	19.35	32.05	0.10	7.65
84.139	19.35	32.05	0.10	7.65
84.169	19.64	32.34	0.10	7.65
84.198	19.64	32.34	-0.02	7.53
84.228	19.64	32.34	-0.02	7.53
84.258	19.93	32.63	-0.02	7.53
84.288	19.93	32.63	0.09	7.63
84.317	19.93	32.63	0.09	7.63
84.347	19.53	32.24	0.09	7.63
84.377	19.53	32.24	0.02	7.56
84.407	19.53	32.24	0.02	7.56
84.436	18.63	31.33	0.02	7.56
84.466	18.63	31.33	0.02	7.57
84.496	18.63	31.33	0.02	7.57
84.526	18.91	31.62	0.02	7.57
84.555	18.91	31.62	0.10	7.65
84.585	18.91	31.62	0.10	7.65
84.615	18.88	31.58	0.10	7.65
84.645	18.88	31.58	-0.01	7.53
84.674	18.88	31.58	-0.01	7.53
84.704	18.67	31.37	-0.01	7.53
84.734	18.67	31.37	0.09	7.63
84.764	18.67	31.37	0.09	7.63
84.793	18.71	31.41	0.09	7.63
84.823	18.71	31.41	0.01	7.56
84.853	18.71	31.41	0.01	7.56
84.883	18.75	31.45	0.01	7.56
84.913	18.75	31.45	0.03	7.57
84.942	18.75	31.45	0.03	7.57
84.972	18.85	31.55	0.03	7.57
85.002	18.85	31.55	0.10	7.64
85.032	18.85	31.55	0.10	7.64
85.061	18.81	31.52	0.10	7.64
85.091	18.81	31.52	-0.01	7.53
85.121	18.81	31.52	-0.01	7.53
85.151	18.73	31.43	-0.01	7.53
85.180	18.73	31.43	0.09	7.63
85.210	18.73	31.43	0.09	7.63
85.240	18.77	31.48	0.09	7.63
85.270	18.77	31.48	0.02	7.56
85.299	18.77	31.48	0.02	7.56
85.329	18.84	31.54	0.02	7.56
85.359	18.84	31.54	0.03	7.57
85.389	18.84	31.54	0.03	7.57
85.418	18.85	31.56	0.03	7.57
85.448	18.85	31.56	0.10	7.64
85.478	18.85	31.56	0.10	7.64
85.508	18.83	31.54	0.10	7.64
85.538	18.83	31.54	-0.01	7.53
85.567	18.83	31.54	-0.01	7.53
85.597	18.87	31.57	-0.01	7.53
85.627	18.87	31.57	0.10	7.64
85.657	18.87	31.57	0.10	7.64
85.686	18.96	31.66	0.10	7.64
85.716	18.96	31.66	0.02	7.56
85.746	18.96	31.66	0.02	7.56
85.776	19.00	31.70	0.02	7.56
85.805	19.00	31.70	0.04	7.58
85.835	19.00	31.70	0.04	7.58
85.865	19.06	31.76	0.04	7.58
85.895	19.06	31.76	0.10	7.65
85.924	19.06	31.76	0.10	7.65
85.954	19.19	31.89	0.10	7.65
85.984	19.19	31.89	-0.01	7.53
86.014	19.19	31.89	-0.01	7.53
86.043	19.74	32.44	-0.01	7.53
86.073	19.74	32.44	0.10	7.64
86.103	19.74	32.44	0.10	7.64
86.133	19.67	32.38	0.10	7.64
86.163	19.67	32.38	0.01	7.55
86.192	19.67	32.38	0.01	7.55
86.222	19.44	32.14	0.01	7.55
86.252	19.44	32.14	0.04	7.58
86.282	19.44	32.14	0.04	7.58
86.311	19.44	32.14	0.04	7.58
86.341	19.44	32.14	0.10	7.64
86.371	19.44	32.14	0.10	7.64
86.401	19.41	32.12	0.10	7.64
86.430	19.41	32.12	-0.01	7.53
86.460	19.41	32.12	-0.01	7.53
86.490	19.61	32.31	-0.01	7.53
86.520	19.61	32.31	0.09	7.64
86.549	19.61	32.31	0.09	7.64
86.579	19.54	32.24	0.09	7.64
86.609	19.54	32.24	0.01	7.56
86.639	19.54	32.24	0.01	7.56
86.668	20.46	33.16	0.01	7.56
86.698	20.46	33.16	0.04	7.58
86.728	20.46	33.16	0.04	7.58
86.758	20.63	33.33	0.04	7.58
86.787	20.63	33.33	0.10	7.64
86.817	20.63	33.33	0.10	7.64
86.847	19.44	32.14	0.10	7.64
86.877	19.44	32.14	-0.01	7.53
86.907	19.44	32.14	-0.01	7.53
86.936	18.84	31.54	-0.01	7.53
86.966	18.84	31.54	0.09	7.64
86.996	18.84	31.54	0.09	7.64
87.026	18.88	31.58	0.09	7.64
87.055	18.88	31.58	0.01	7.55
87.085	18.88	31.58	0.01	7.55
87.115	18.88	31.58	0.01	7.55
87.144	18.88	31.58	0.05	7.59
87.174	18.88	31.58	0.05	7.59
87.204	18.94	31.64	0.05	7.59
87.234	18.94	31.64	0.10	7.64
87.263	18.94	31.64	0.10	7.64
87.293	19.00	31.70	0.10	7.64
87.323	19.00	31.70	-0.01	7.53
87.353	19.00	31.70	-0.01	7.53
87.383	19.02	31.73	-0.01	7.53
87.412	19.02	31.73	0.10	7.64
87.442	19.02	31.73	0.10	7.64
87.472	18.69	31.39	0.10	7.64
87.502	18.69	31.39	0.01	7.55
87.531	18.69	31.39	0.01	7.55
87.561	18.73	31.44	0.01	7.55
87.591	18.73	31.44	0.05	7.60
87.621	18.73	31.44	0.05	7.60
87.650	18.78	31.48	0.05	7.60
87.680	18.78	31.48	0.09	7.64
87.710	18.78	31.48	0.09	7.64
87.740	18.65	31.36	0.09	7.64
87.769	18.65	31.36	-0.01	7.53
87.799	18.65	31.36	-0.01	7.53
87.829	19.01	31.71	-0.01	7.53
87.859	19.01	31.71	0.10	7.64
87.888	19.01	31.71	0.10	7.64
87.918	18.79	31.49	0.10	7.64
87.948	18.79	31.49	0.01	7.55
87.978	18.79	31.49	0.01	7.55
88.008	19.06	31.77	0.01	7.55
88.037	19.06	31.77	0.06	7.60
88.067	19.06	31.77	0.06	7.60
88.097	19.12	31.82	0.06	7.60
88.127	19.12	31.82	0.09	7.63
88.156	19.12	31.82	0.09	7.63
88.186	19.66	32.37	0.09	7.63
88.216	19.66	32.37	-0.01	7.53
88.246	19.66	32.37	-0.01	7.53
88.275	19.66	32.36	-0.01	7.53
88.305	19.66	32.36	0.10	7.64
88.335	19.66	32.36	0.10	7.64
88.365	19.78	32.49	0.10	7.64
88.394	19.78	32.49	0.01	7.55
88.424	19.78	32.49	0.01	7.55
88.454	20.22	32.93	0.01	7.55
88.484	20.22	32.93	0.06	7.60
88.513	20.22	32.93	0.06	7.60
88.543	20.08	32.78	0.06	7.60
88.573	20.08	32.78	0.08	7.63
88.603	20.08	32.78	0.08	7.63
88.633	20.14	32.85	0.08	7.63
88.662	20.14	32.85	-0.01	7.53
88.692	20.14	32.85	-0.01	7.53
88.722	19.92	32.63	-0.01	7.53
88.752	19.92	32.63	0.10	7.65
88.781	19.92	32.63	0.10	7.65
88.811	19.63	32.34	0.10	7.65
88.841	19.63	32.34	0.01	7.55
88.871	19.63	32.34	0.01	7.55
88.900	19.68	32.38	0.01	7.55
88.930	19.68	32.38	0.06	7.61
88.960	19.68	32.38	0.06	7.61
88.990	19.70	32.40	0.06	7.61
89.019	19.70	32.40	0.08	7.62
89.049	19.70	32.40	0.08	7.62
89.079	19.84	32.54	0.08	7.62
89.109	19.84	32.54	-0.02	7.53
89.138	19.84	32.54	-0.02	7.53
89.168	19.76	32.47	-0.02	7.53
89.198	19.76	32.47	0.10	7.64
89.228	19.76	32.47	0.10	7.64
89.258	20.31	33.02	0.10	7.64
89.287	20.31	33.02	0.00	7.55
89.317	20.31	33.02	0.00	7.55
89.347	20.12	32.82	0.00	7.55
89.377	20.12	32.82	0.06	7.61
89.406	20.12	32.82	0.06	7.61
89.436	19.95	32.65	0.06	7.61
89.466	19.95	32.65	0.08	7.62
89.496	19.95	32.65	0.08	7.62
89.525	20.55	33.25	0.08	7.62
89.555	20.55	33.25	-0.01	7.53
89.585	20.55	33.25	-0.01	7.53
89.615	19.85	32.56	-0.01	7.53
89.644	19.85	32.56	0.11	7.65
89.674	19.85	32.56	0.11	7.65
89.704	19.90	32.60	0.11	7.65
89.734	19.90	32.60	0.00	7.55
89.763	19.90	32.60	0.00	7.55
89.793	19.59	32.29	0.00	7.55
89.823	19.59	32.29	0.07	7.61
89.853	19.59	32.29	0.07	7.61
89.883	19.74	32.44	0.07	7.61
89.912	19.74	32.44	0.07	7.61
89.942	19.74	32.44	0.07	7.61
89.972	19.95	32.66	0.07	7.61
90.002	19.95	32.66	-0.02	7.53
90.031	19.95	32.66	-0.02	7.53
90.061	20.17	32.87	-0.02	7.53
90.091	20.17	32.87	0.11	7.65
90.121	20.17	32.87	0.11	7.65
90.150	19.77	32.47	0.11	7.65
90.180	19.77	32.47	0.00	7.55
90.210	19.77	32.47	0.00	7.55
90.240	19.50	32.20	0.00	7.55
90.269	19.50	32.20	0.07	7.61
90.299	19.50	32.20	0.07	7.61
90.329	19.61	32.32	0.07	7.61
90.359	19.61	32.32	0.06	7.60
90.388	19.61	32.32	0.06	7.60
90.418	19.17	31.87	0.06	7.60
90.448	19.17	31.87	-0.01	7.53
90.478	19.17	31.87	-0.01	7.53
90.508	19.17	31.88	-0.01	7.53
90.537	19.17	31.88	0.10	7.64
90.567	19.17	31.88	0.10	7.64
90.597	19.17	31.87	0.10	7.64
90.627	19.17	31.87	-0.00	7.54
90.656	19.17	31.87	-0.00	7.54
90.686	19.17	31.87	-0.00	7.54
90.716	19.17	31.87	0.08	7.62
90.746	19.17	31.87	0.08	7.62
90.775	19.16	31.86	0.08	7.62
90.805	19.16	31.86	0.05	7.60
90.835	19.16	31.86	0.05	7.60
90.865	19.20	31.90	0.05	7.60
90.894	19.20	31.90	-0.01	7.53
90.924	19.20	31.90	-0.01	7.53
90.954	19.17	31.87	-0.01	7.53
90.984	19.17	31.87	0.11	7.65
91.013	19.17	31.87	0.11	7.65
91.043	19.13	31.84	0.11	7.65
91.073	19.13	31.84	-0.00	7.54
91.103	19.13	31.84	-0.00	7.54
91.133	19.15	31.85	-0.00	7.54
91.162	19.15	31.85	0.07	7.62
91.192	19.15	31.85	0.07	7.62
91.222	19.25	31.95	0.07	7.62
91.252	19.25	31.95	0.05	7.59
91.281	19.25	31.95	0.05	7.59
91.311	19.41	32.11	0.05	7.59
91.341	19.41	32.11	-0.01	7.53
91.371	19.41	32.11	-0.01	7.53
91.400	19.84	32.55	-0.01	7.53
91.430	19.84	32.55	0.11	7.65
91.460	19.84	32.55	0.11	7.65
91.490	19.46	32.16	0.11	7.65
91.519	19.46	32.16	-0.01	7.54
91.549	19.46	32.16	-0.01	7.54
91.579	19.21	31.92	-0.01	7.54
91.609	19.21	31.92	0.08	7.62
91.639	19.21	31.92	0.08	7.62
91.668	19.16	31.86	0.08	7.62
91.698	19.16	31.86	0.04	7.58
91.728	19.16	31.86	0.04	7.58
91.758	19.20	31.90	0.04	7.58
91.787	19.20	31.90	-0.01	7.54
91.817	19.20	31.90	-0.01	7.54
91.847	19.20	31.90	-0.01	7.54
91.877	19.20	31.90	0.11	7.65
91.906	19.20	31.90	0.11	7.65
91.936	19.25	31.95	0.11	7.65
91.966	19.25	31.95	-0.01	7.53
91.996	19.25	31.95	-0.01	7.53
92.025	19.45	32.15	-0.01	7.53
92.055	19.45	32.15	0.08	7.63
92.085	19.45	32.15	0.08	7.63
92.115	19.39	32.09	0.08	7.63
92.144	19.39	32.09	0.03	7.57
92.174	19.39	32.09	0.03	7.57
92.204	19.67	32.37	0.03	7.57
92.234	19.67	32.37	0.01	7.55
92.263	19.67	32.37	0.01	7.55
92.293	19.64	32.34	0.01	7.55
92.323	19.64	32.34	0.10	7.65
92.353	19.64	32.34	0.10	7.65
92.383	19.86	32.57	0.10	7.65
92.412	19.86	32.57	-0.01	7.53
92.442	19.86	32.57	-0.01	7.53
92.472	19.47	32.17	-0.01	7.53
92.502	19.47	32.17	0.08	7.62
92.531	19.47	32.17	0.08	7.62
92.561	19.76	32.47	0.08	7.62
92.591	19.76	32.47	0.03	7.57
92.621	19.76	32.47	0.03	7.57
92.650	19.75	32.45	0.03	7.57
92.680	19.75	32.45	0.01	7.55
92.710	19.75	32.45	0.01	7.55
92.740	19.82	32.52	0.01	7.55
92.769	19.82	32.52	0.11	7.65
92.799	19.82	32.52	0.11	7.65
92.829	17.87	30.57	0.11	7.65
92.859	17.87	30.57	-0.01	7.53
92.889	17.87	30.57	-0.01	7.53
92.918	4.50	17.20	-0.01	7.53
92.948	4.50	17.20	0.08	7.62
92.978	4.50	17.20	0.08	7.62
93.008	-3.95	8.75	0.08	7.62
93.037	-3.95	8.75	0.02	7.56
93.067	-3.95	8.75	0.02	7.56
93.097	0.12	12.82	0.02	7.56
93.127	0.12	12.82	0.01	7.56
93.156	0.12	12.82	0.01	7.56
93.186	4.29	16.99	0.01	7.56
93.216	4.29	16.99	0.10	7.64
93.246	4.29	16.99	0.10	7.64
93.276	4.36	17.06	0.10	7.64
93.305	4.36	17.06	-0.02	7.52
93.335	4.36	17.06	-0.02	7.52
93.365	1.73	14.43	-0.02	7.52
93.395	1.73	14.43	0.08	7.63
93.424	1.73	14.43	0.08	7.63
93.454	0.86	13.57	0.08	7.63
93.484	0.86	13.57	0.02	7.56
93.514	0.86	13.57	0.02	7.56
93.543	1.70	14.41	0.02	7.56
93.573	1.70	14.41	0.03	7.57
93.603	1.70	14.41	0.03	7.57
93.633	2.66	15.37	0.03	7.57
93.663	2.66	15.37	0.10	7.64
93.692	2.66	15.37	0.10	7.64
93.722	3.04	15.74	0.10	7.64
93.752	3.04	15.74	-0.02	7.52
93.782	3.04	15.74	-0.02	7.52
93.811	2.21	14.92	-0.02	7.52
93.841	2.21	14.92	0.09	7.64
93.871	2.21	14.92	0.09	7.64
93.901	1.87	14.57	0.09	7.64
93.930	1.87	14.57	0.01	7.56
93.960	1.87	14.57	0.01	7.56
93.990	1.87	14.57	0.01	7.56
94.020	1.87	14.57	0.04	7.58
94.050	1.87	14.57	0.04	7.58
94.079	2.05	14.75	0.04	7.58
94.109	2.05	14.75	0.09	7.64
94.139	2.05	14.75	0.09	7.64
94.169	2.04	14.74	0.09	7.64
94.198	2.04	14.74	-0.02	7.53
94.228	2.04	14.74	-0.02	7.53
94.258	2.06	14.76	-0.02	7.53
94.288	2.06	14.76	0.09	7.63
94.318	2.06	14.76	0.09	7.63
94.347	1.94	14.64	0.09	7.63
94.377	1.94	14.64	0.01	7.55
94.407	1.94	14.64	0.01	7.55
94.437	2.10	14.81	0.01	7.55
94.466	2.10	14.81	0.05	7.59
94.496	2.10	14.81	0.05	7.59
94.526	2.17	14.88	0.05	7.59
94.556	2.17	14.88	0.09	7.64
94.585	2.17	14.88	0.09	7.64
94.615	2.30	15.00	0.09	7.64
94.645	2.30	15.00	-0.02	7.53
94.675	2.30	15.00	-0.02	7.53
94.705	2.54	15.25	-0.02	7.53
94.734	2.54	15.25	0.10	7.64
94.764	2.54	15.25	0.10	7.64
94.794	2.58	15.28	0.10	7.64
94.824	2.58	15.28	0.01	7.55
94.853	2.58	15.28	0.01	7.55
94.883	2.46	15.17	0.01	7.55
94.913	2.46	15.17	0.06	7.60
94.943	2.46	15.17	0.06	7.60
94.972	1.70	14.40	0.06	7.60
95.002	1.70	14.40	0.08	7.62
95.032	1.70	14.40	0.08	7.62
95.062	1.67	14.37	0.08	7.62
95.092	1.67	14.37	-0.01	7.53
95.121	1.67	14.37	-0.01	7.53
95.151	2.56	15.26	-0.01	7.53
95.181	2.56	15.26	0.10	7.64
95.211	2.56	15.26	0.10	7.64
95.240	2.36	15.06	0.10	7.64
95.270	2.36	15.06	0.00	7.55
95.300	2.36	15.06	0.00	7.55
95.330	2.44	15.14	0.00	7.55
95.359	2.44	15.14	0.06	7.60
95.389	2.44	15.14	0.06	7.60
95.419	2.14	14.85	0.06	7.60
95.449	2.14	14.85	0.07	7.62
95.479	2.14	14.85	0.07	7.62
95.508	2.23	14.94	0.07	7.62
95.538	2.23	14.94	-0.02	7.53
95.568	2.23	14.94	-0.02	7.53
95.598	1.96	14.67	-0.02	7.53
95.627	1.96	14.67	0.10	7.65
95.657	1.96	14.67	0.10	7.65
95.687	2.76	15.46	0.10	7.65
95.717	2.76	15.46	0.00	7.54
95.746	2.76	15.46	0.00	7.54
95.776	3.13	15.83	0.00	7.54
95.806	3.13	15.83	0.07	7.61
95.836	3.13	15.83	0.07	7.61
95.865	3.02	15.72	0.07	7.61
95.895	3.02	15.72	0.06	7.60
95.925	3.02	15.72	0.06	7.60
95.955	3.19	15.89	0.06	7.60
95.985	3.19	15.89	-0.02	7.53
96.014	3.19	15.89	-0.02	7.53
96.044	1.51	14.22	-0.02	7.53
96.074	1.51	14.22	0.10	7.64
96.104	1.51	14.22	0.10	7.64
96.133	1.71	14.41	0.10	7.64
96.163	1.71	14.41	-0.01	7.54
96.193	1.71	14.41	-0.01	7.54
96.223	1.43	14.13	-0.01	7.54
96.252	1.43	14.13	0.07	7.62
96.282	1.43	14.13	0.07	7.62
96.312	1.45	14.15	0.07	7.62
96.342	1.45	14.15	0.05	7.59
96.372	1.45	14.15	0.05	7.59
96.401	1.73	14.43	0.05	7.59
96.431	1.73	14.43	-0.01	7.53
96.461	1.73	14.43	-0.01	7.53
96.491	1.93	14.64	-0.01	7.53
96.520	1.93	14.64	0.10	7.64
96.550	1.93	14.64	0.10	7.64
96.580	1.09	13.79	0.10	7.64
96.610	1.09	13.79	-0.01	7.53
96.640	1.09	13.79	-0.01	7.53
96.669	1.16