Tempo(s)    P0(KPa) P0+Coluna(KPa)  P1(KPa) P1+Coluna(KPa)
0.003	-2.22	-2.22	-2.22	-2.22
0.030	-2.22	-2.22	-2.22	-2.22
0.060	12.78	12.78	-2.22	-2.22
0.090	12.78	12.78	7.53	7.53
0.120	12.78	12.78	7.53	7.53
0.149	12.79	12.79	7.53	7.53
0.179	12.79	12.79	7.63	7.63
0.209	12.79	12.79	7.63	7.63
0.239	12.80	12.80	7.63	7.63
0.268	12.80	12.80	7.53	7.53
0.298	12.80	12.80	7.53	7.53
0.328	12.80	12.80	7.53	7.53
0.358	12.80	12.80	7.64	7.64
0.388	12.80	12.80	7.64	7.64
0.417	12.80	12.80	7.64	7.64
0.447	12.80	12.80	7.55	7.55
0.477	12.80	12.80	7.55	7.55
0.507	12.80	12.80	7.55	7.55
0.536	12.80	12.80	7.59	7.59
0.566	12.80	12.80	7.59	7.59
0.596	12.80	12.80	7.59	7.59
0.626	0.00	12.80	0.06	7.64
0.655	0.00	12.80	0.06	7.64
0.685	0.00	12.80	0.06	7.64
0.715	0.00	12.80	-0.06	7.53
0.744	0.00	12.80	-0.06	7.53
0.774	0.00	12.80	-0.06	7.53
0.804	0.00	12.80	0.05	7.64
0.834	0.00	12.80	0.05	7.64
0.863	-0.01	12.79	0.05	7.64
0.893	-0.01	12.79	-0.03	7.56
0.923	-0.01	12.79	-0.03	7.56
0.953	-0.00	12.80	-0.03	7.56
0.983	-0.00	12.80	-0.02	7.57
1.012	-0.00	12.80	-0.02	7.57
1.042	-0.01	12.79	-0.02	7.57
1.072	-0.01	12.79	0.06	7.64
1.102	-0.01	12.79	0.06	7.64
1.131	-0.01	12.79	0.06	7.64
1.161	-0.01	12.79	-0.06	7.53
1.191	-0.01	12.79	-0.06	7.53
1.221	-0.01	12.79	-0.06	7.53
1.251	-0.01	12.79	0.05	7.63
1.280	-0.01	12.79	0.05	7.63
1.310	-0.02	12.78	0.05	7.63
1.340	-0.02	12.78	-0.02	7.56
1.370	-0.02	12.78	-0.02	7.56
1.399	-0.02	12.78	-0.02	7.56
1.429	-0.02	12.78	-0.02	7.56
1.459	-0.02	12.78	-0.02	7.56
1.489	-0.02	12.78	-0.02	7.56
1.519	-0.02	12.78	0.06	7.64
1.548	-0.02	12.78	0.06	7.64
1.578	-0.02	12.78	0.06	7.64
1.608	-0.02	12.78	-0.06	7.53
1.638	-0.02	12.78	-0.06	7.53
1.667	-0.02	12.78	-0.06	7.53
1.697	-0.02	12.78	0.04	7.62
1.727	-0.02	12.78	0.04	7.62
1.757	-0.02	12.78	0.04	7.62
1.787	-0.02	12.78	-0.02	7.57
1.816	-0.02	12.78	-0.02	7.57
1.846	-0.02	12.78	-0.02	7.57
1.876	-0.02	12.78	-0.04	7.55
1.906	-0.02	12.78	-0.04	7.55
1.935	-0.02	12.78	-0.04	7.55
1.965	-0.02	12.78	0.06	7.65
1.995	-0.02	12.78	0.06	7.65
2.025	-0.02	12.78	0.06	7.65
2.055	-0.02	12.78	-0.05	7.53
2.084	-0.02	12.78	-0.05	7.53
2.114	-0.02	12.78	-0.05	7.53
2.144	-0.02	12.78	0.04	7.63
2.174	-0.02	12.78	0.04	7.63
2.203	-0.02	12.78	0.04	7.63
2.233	-0.02	12.78	-0.00	7.58
2.263	-0.02	12.78	-0.00	7.58
2.293	-0.02	12.78	-0.00	7.58
2.323	-0.02	12.78	-0.04	7.54
2.352	-0.02	12.78	-0.04	7.54
2.382	-0.02	12.78	-0.04	7.54
2.412	-0.02	12.78	0.06	7.64
2.442	-0.02	12.78	0.06	7.64
2.471	-0.02	12.78	0.06	7.64
2.501	-0.02	12.78	-0.05	7.54
2.531	-0.02	12.78	-0.05	7.54
2.561	-0.02	12.78	-0.05	7.54
2.591	-0.02	12.78	0.04	7.62
2.620	-0.02	12.78	0.04	7.62
2.650	-0.03	12.78	0.04	7.62
2.680	-0.03	12.78	0.00	7.59
2.710	-0.03	12.78	0.00	7.59
2.739	-0.03	12.78	0.00	7.59
2.769	-0.03	12.78	-0.05	7.53
2.799	-0.03	12.78	-0.05	7.53
2.829	-0.03	12.77	-0.05	7.53
2.859	-0.03	12.77	0.06	7.65
2.888	-0.03	12.77	0.06	7.65
2.918	-0.03	12.77	0.06	7.65
2.948	-0.03	12.77	-0.05	7.54
2.978	-0.03	12.77	-0.05	7.54
3.007	-0.03	12.77	-0.05	7.54
3.037	-0.03	12.77	0.03	7.62
3.067	-0.03	12.77	0.03	7.62
3.097	-0.04	12.77	0.03	7.62
3.127	-0.04	12.77	0.01	7.60
3.156	-0.04	12.77	0.01	7.60
3.186	-0.04	12.77	0.01	7.60
3.216	-0.04	12.77	-0.06	7.53
3.246	-0.04	12.77	-0.06	7.53
3.275	-0.04	12.77	-0.06	7.53
3.305	-0.04	12.77	0.06	7.65
3.335	-0.04	12.77	0.06	7.65
3.365	-0.04	12.76	0.06	7.65
3.395	-0.04	12.76	-0.05	7.54
3.424	-0.04	12.76	-0.05	7.54
3.454	-0.04	12.77	-0.05	7.54
3.484	-0.04	12.77	0.03	7.61
3.514	-0.04	12.77	0.03	7.61
3.543	-0.04	12.76	0.03	7.61
3.573	-0.04	12.76	0.03	7.61
3.603	-0.04	12.76	0.03	7.61
3.633	-0.04	12.76	0.03	7.61
3.662	-0.04	12.76	-0.06	7.53
3.692	-0.04	12.76	-0.06	7.53
3.722	-0.04	12.76	-0.06	7.53
3.752	-0.04	12.76	0.06	7.65
3.782	-0.04	12.76	0.06	7.65
3.811	-0.04	12.76	0.06	7.65
3.841	-0.04	12.76	-0.04	7.55
3.871	-0.04	12.76	-0.04	7.55
3.901	0.43	13.23	-0.04	7.55
3.930	0.43	13.23	0.02	7.61
3.960	0.43	13.23	0.02	7.61
3.990	17.91	30.72	0.02	7.61
4.020	17.91	30.72	0.04	7.63
4.050	17.91	30.72	0.04	7.63
4.079	24.72	37.52	0.04	7.63
4.109	24.72	37.52	-0.06	7.53
4.139	24.72	37.52	-0.06	7.53
4.169	23.15	35.95	-0.06	7.53
4.198	23.15	35.95	0.06	7.65
4.228	23.15	35.95	0.06	7.65
4.258	24.56	37.36	0.06	7.65
4.288	24.56	37.36	-0.03	7.55
4.318	24.56	37.36	-0.03	7.55
4.347	24.74	37.54	-0.03	7.55
4.377	24.74	37.54	0.01	7.60
4.407	24.74	37.54	0.01	7.60
4.437	24.79	37.59	0.01	7.60
4.466	24.79	37.59	0.05	7.64
4.496	24.79	37.59	0.05	7.64
4.526	25.08	37.88	0.05	7.64
4.556	25.08	37.88	-0.05	7.53
4.585	25.08	37.88	-0.05	7.53
4.615	25.10	37.90	-0.05	7.53
4.645	25.10	37.90	0.06	7.64
4.675	25.10	37.90	0.06	7.64
4.705	25.27	38.07	0.06	7.64
4.734	25.27	38.07	-0.03	7.55
4.764	25.27	38.07	-0.03	7.55
4.794	25.26	38.06	-0.03	7.55
4.824	25.26	38.06	-0.00	7.58
4.853	25.26	38.06	-0.00	7.58
4.883	25.35	38.15	-0.00	7.58
4.913	25.35	38.15	0.06	7.64
4.943	25.35	38.15	0.06	7.64
4.972	25.41	38.21	0.06	7.64
5.002	25.41	38.21	-0.05	7.53
5.032	25.41	38.21	-0.05	7.53
5.062	25.49	38.29	-0.05	7.53
5.092	25.49	38.29	0.05	7.64
5.121	25.49	38.29	0.05	7.64
5.151	15.96	28.76	0.05	7.64
5.181	15.96	28.76	-0.03	7.55
5.211	15.96	28.76	-0.03	7.55
5.240	-2.57	10.23	-0.03	7.55
5.270	-2.57	10.23	-0.01	7.57
5.300	-2.57	10.23	-0.01	7.57
5.330	12.05	24.85	-0.01	7.57
5.359	12.05	24.85	0.06	7.65
5.389	12.05	24.85	0.06	7.65
5.419	21.19	33.99	0.06	7.65
5.449	21.19	33.99	-0.06	7.53
5.479	21.19	33.99	-0.06	7.53
5.508	7.19	19.99	-0.06	7.53
5.538	7.19	19.99	0.05	7.63
5.568	7.19	19.99	0.05	7.63
5.598	6.52	19.32	0.05	7.63
5.627	6.52	19.32	-0.01	7.57
5.657	6.52	19.32	-0.01	7.57
5.687	23.48	36.28	-0.01	7.57
5.717	23.48	36.28	-0.03	7.56
5.746	23.48	36.28	-0.03	7.56
5.776	28.24	41.04	-0.03	7.56
5.806	28.24	41.04	0.06	7.65
5.836	28.24	41.04	0.06	7.65
5.866	24.56	37.36	0.06	7.65
5.895	24.56	37.36	-0.06	7.53
5.925	24.56	37.36	-0.06	7.53
5.955	23.18	35.98	-0.06	7.53
5.985	23.18	35.98	0.04	7.63
6.014	23.18	35.98	0.04	7.63
6.044	21.06	33.86	0.04	7.63
6.074	21.06	33.86	-0.01	7.58
6.104	21.06	33.86	-0.01	7.58
6.133	23.75	36.55	-0.01	7.58
6.163	23.75	36.55	-0.04	7.55
6.193	23.75	36.55	-0.04	7.55
6.223	23.53	36.33	-0.04	7.55
6.253	23.53	36.33	0.06	7.65
6.282	23.53	36.33	0.06	7.65
6.312	23.75	36.55	0.06	7.65
6.342	23.75	36.55	-0.05	7.53
6.372	23.75	36.55	-0.05	7.53
6.401	23.21	36.01	-0.05	7.53
6.431	23.21	36.01	0.04	7.63
6.461	23.21	36.01	0.04	7.63
6.491	23.54	36.34	0.04	7.63
6.520	23.54	36.34	0.00	7.59
6.550	23.54	36.34	0.00	7.59
6.580	23.33	36.13	0.00	7.59
6.610	23.33	36.13	-0.05	7.53
6.640	23.33	36.13	-0.05	7.53
6.669	22.94	35.74	-0.05	7.53
6.699	22.94	35.74	0.06	7.65
6.729	22.94	35.74	0.06	7.65
6.759	22.87	35.67	0.06	7.65
6.788	22.87	35.67	-0.05	7.54
6.818	22.87	35.67	-0.05	7.54
6.848	22.99	35.79	-0.05	7.54
6.878	22.99	35.79	0.03	7.62
6.907	22.99	35.79	0.03	7.62
6.937	22.99	35.79	0.03	7.62
6.967	22.99	35.79	0.01	7.60
6.997	22.99	35.79	0.01	7.60
7.027	24.09	36.89	0.01	7.60
7.056	24.09	36.89	-0.05	7.53
7.086	24.09	36.89	-0.05	7.53
7.116	23.67	36.48	-0.05	7.53
7.146	23.67	36.48	0.06	7.65
7.175	23.67	36.48	0.06	7.65
7.205	24.12	36.92	0.06	7.65
7.235	24.12	36.92	-0.04	7.54
7.265	24.12	36.92	-0.04	7.54
7.294	23.85	36.65	-0.04	7.54
7.324	23.85	36.65	0.03	7.62
7.354	23.85	36.65	0.03	7.62
7.384	23.93	36.73	0.03	7.62
7.414	23.93	36.73	0.03	7.61
7.443	23.93	36.73	0.03	7.61
7.473	24.65	37.45	0.03	7.61
7.503	24.65	37.45	-0.06	7.53
7.533	24.65	37.45	-0.06	7.53
7.562	24.91	37.71	-0.06	7.53
7.592	24.91	37.71	0.06	7.65
7.622	24.91	37.71	0.06	7.65
7.652	25.06	37.87	0.06	7.65
7.681	25.06	37.87	-0.04	7.55
7.711	25.06	37.87	-0.04	7.55
7.741	25.32	38.12	-0.04	7.55
7.771	25.32	38.12	0.03	7.61
7.801	25.32	38.12	0.03	7.61
7.830	25.63	38.43	0.03	7.61
7.860	25.63	38.43	0.04	7.63
7.890	25.63	38.43	0.04	7.63
7.920	26.18	38.98	0.04	7.63
7.949	26.18	38.98	-0.05	7.53
7.979	26.18	38.98	-0.05	7.53
8.009	26.54	39.34	-0.05	7.53
8.039	26.54	39.34	0.06	7.65
8.069	26.54	39.34	0.06	7.65
8.098	26.56	39.36	0.06	7.65
8.128	26.56	39.36	-0.03	7.55
8.158	26.56	39.36	-0.03	7.55
8.188	26.80	39.60	-0.03	7.55
8.217	26.80	39.60	0.02	7.60
8.247	26.80	39.60	0.02	7.60
8.277	26.87	39.67	0.02	7.60
8.307	26.87	39.67	0.05	7.63
8.336	26.87	39.67	0.05	7.63
8.366	26.57	39.37	0.05	7.63
8.396	26.57	39.37	-0.05	7.53
8.426	26.57	39.37	-0.05	7.53
8.456	27.03	39.83	-0.05	7.53
8.485	27.03	39.83	0.06	7.65
8.515	27.03	39.83	0.06	7.65
8.545	26.85	39.65	0.06	7.65
8.575	26.85	39.65	-0.03	7.56
8.604	26.85	39.65	-0.03	7.56
8.634	26.99	39.79	-0.03	7.56
8.664	26.99	39.79	0.01	7.59
8.694	26.99	39.79	0.01	7.59
8.723	26.54	39.34	0.01	7.59
8.753	26.54	39.34	0.06	7.64
8.783	26.54	39.34	0.06	7.64
8.813	26.73	39.53	0.06	7.64
8.843	26.73	39.53	-0.06	7.53
8.872	26.73	39.53	-0.06	7.53
8.902	26.87	39.67	-0.06	7.53
8.932	26.87	39.67	0.06	7.64
8.962	26.87	39.67	0.06	7.64
8.991	27.85	40.65	0.06	7.64
9.021	27.85	40.65	-0.03	7.56
9.051	27.85	40.65	-0.03	7.56
9.081	27.28	40.08	-0.03	7.56
9.110	27.28	40.08	-0.01	7.58
9.140	27.28	40.08	-0.01	7.58
9.170	27.48	40.28	-0.01	7.58
9.200	27.48	40.28	0.06	7.65
9.230	27.48	40.28	0.06	7.65
9.259	27.27	40.07	0.06	7.65
9.289	27.27	40.07	-0.06	7.53
9.319	27.27	40.07	-0.06	7.53
9.349	27.42	40.22	-0.06	7.53
9.378	27.42	40.22	0.05	7.64
9.408	27.42	40.22	0.05	7.64
9.438	27.35	40.15	0.05	7.64
9.468	27.35	40.15	-0.02	7.57
9.497	27.35	40.15	-0.02	7.57
9.527	27.31	40.11	-0.02	7.57
9.557	27.31	40.11	-0.02	7.57
9.587	27.31	40.11	-0.02	7.57
9.617	27.14	39.94	-0.02	7.57
9.646	27.14	39.94	0.06	7.65
9.676	27.14	39.94	0.06	7.65
9.706	27.07	39.87	0.06	7.65
9.736	27.07	39.87	-0.05	7.53
9.765	27.07	39.87	-0.05	7.53
9.795	27.27	40.07	-0.05	7.53
9.825	27.27	40.07	0.04	7.63
9.855	27.27	40.07	0.04	7.63
9.884	26.95	39.75	0.04	7.63
9.914	26.95	39.75	-0.01	7.58
9.944	26.95	39.75	-0.01	7.58
9.974	26.77	39.58	-0.01	7.58
10.004	26.77	39.58	-0.03	7.56
10.033	26.77	39.58	-0.03	7.56
10.063	26.76	39.56	-0.03	7.56
10.093	26.76	39.56	0.06	7.65
10.123	26.76	39.56	0.06	7.65
10.152	26.65	39.45	0.06	7.65
10.182	26.65	39.45	-0.05	7.53
10.212	26.65	39.45	-0.05	7.53
10.242	26.44	39.24	-0.05	7.53
10.271	26.44	39.24	0.04	7.63
10.301	26.44	39.24	0.04	7.63
10.331	26.41	39.22	0.04	7.63
10.361	26.41	39.22	-0.01	7.58
10.390	26.41	39.22	-0.01	7.58
10.420	25.96	38.76	-0.01	7.58
10.450	25.96	38.76	-0.04	7.55
10.480	25.96	38.76	-0.04	7.55
10.510	25.97	38.77	-0.04	7.55
10.539	25.97	38.77	0.07	7.65
10.569	25.97	38.77	0.07	7.65
10.599	25.78	38.58	0.07	7.65
10.629	25.78	38.58	-0.05	7.54
10.658	25.78	38.58	-0.05	7.54
10.688	25.79	38.59	-0.05	7.54
10.718	25.79	38.59	0.04	7.63
10.748	25.79	38.59	0.04	7.63
10.777	25.85	38.65	0.04	7.63
10.807	25.85	38.65	0.00	7.59
10.837	25.85	38.65	0.00	7.59
10.867	25.77	38.58	0.00	7.59
10.896	25.77	38.58	-0.05	7.54
10.926	25.77	38.58	-0.05	7.54
10.956	25.75	38.55	-0.05	7.54
10.986	25.75	38.55	0.06	7.65
11.015	25.75	38.55	0.06	7.65
11.045	25.85	38.65	0.06	7.65
11.075	25.85	38.65	-0.05	7.54
11.105	25.85	38.65	-0.05	7.54
11.134	25.72	38.53	-0.05	7.54
11.164	25.72	38.53	0.04	7.62
11.194	25.72	38.53	0.04	7.62
11.224	25.86	38.66	0.04	7.62
11.254	25.86	38.66	0.01	7.60
11.283	25.86	38.66	0.01	7.60
11.313	25.79	38.59	0.01	7.60
11.343	25.79	38.59	-0.05	7.54
11.373	25.79	38.59	-0.05	7.54
11.402	25.79	38.59	-0.05	7.54
11.432	25.79	38.59	0.07	7.65
11.462	25.79	38.59	0.07	7.65
11.492	25.80	38.60	0.07	7.65
11.521	25.80	38.60	-0.04	7.54
11.551	25.80	38.60	-0.04	7.54
11.581	25.76	38.56	-0.04	7.54
11.611	25.76	38.56	0.03	7.62
11.640	25.76	38.56	0.03	7.62
11.670	25.93	38.73	0.03	7.62
11.700	25.93	38.73	0.03	7.61
11.730	25.93	38.73	0.03	7.61
11.759	25.76	38.56	0.03	7.61
11.789	25.76	38.56	-0.05	7.54
11.819	25.76	38.56	-0.05	7.54
11.849	26.01	38.81	-0.05	7.54
11.879	26.01	38.81	0.07	7.65
11.908	26.01	38.81	0.07	7.65
11.938	25.88	38.68	0.07	7.65
11.968	25.88	38.68	-0.04	7.55
11.998	25.88	38.68	-0.04	7.55
12.027	25.96	38.76	-0.04	7.55
12.057	25.96	38.76	0.03	7.61
12.087	25.96	38.76	0.03	7.61
12.117	25.97	38.77	0.03	7.61
12.146	25.97	38.77	0.03	7.62
12.176	25.97	38.77	0.03	7.62
12.206	25.93	38.73	0.03	7.62
12.236	25.93	38.73	-0.05	7.53
12.265	25.93	38.73	-0.05	7.53
12.295	25.89	38.69	-0.05	7.53
12.325	25.89	38.69	0.07	7.65
12.355	25.89	38.69	0.07	7.65
12.384	25.94	38.74	0.07	7.65
12.414	25.94	38.74	-0.04	7.55
12.444	25.94	38.74	-0.04	7.55
12.474	25.89	38.69	-0.04	7.55
12.504	25.89	38.69	0.02	7.61
12.533	25.89	38.69	0.02	7.61
12.563	26.06	38.86	0.02	7.61
12.593	26.06	38.86	0.04	7.63
12.623	26.06	38.86	0.04	7.63
12.652	25.95	38.75	0.04	7.63
12.682	25.95	38.75	-0.05	7.53
12.712	25.95	38.75	-0.05	7.53
12.742	25.99	38.79	-0.05	7.53
12.771	25.99	38.79	0.06	7.65
12.801	25.99	38.79	0.06	7.65
12.831	26.06	38.86	0.06	7.65
12.861	26.06	38.86	-0.03	7.55
12.890	26.06	38.86	-0.03	7.55
12.920	25.96	38.77	-0.03	7.55
12.950	25.96	38.77	0.01	7.60
12.980	25.96	38.77	0.01	7.60
13.009	26.06	38.86	0.01	7.60
13.039	26.06	38.86	0.05	7.64
13.069	26.06	38.86	0.05	7.64
13.099	26.12	38.92	0.05	7.64
13.128	26.12	38.92	-0.05	7.53
13.158	26.12	38.92	-0.05	7.53
13.188	26.10	38.90	-0.05	7.53
13.218	26.10	38.90	0.06	7.64
13.248	26.10	38.90	0.06	7.64
13.277	26.04	38.84	0.06	7.64
13.307	26.04	38.84	-0.03	7.56
13.337	26.04	38.84	-0.03	7.56
13.367	26.15	38.95	-0.03	7.56
13.396	26.15	38.95	0.00	7.59
13.426	26.15	38.95	0.00	7.59
13.456	26.06	38.87	0.00	7.59
13.486	26.06	38.87	0.06	7.64
13.515	26.06	38.87	0.06	7.64
13.545	26.20	39.00	0.06	7.64
13.575	26.20	39.00	-0.05	7.54
13.605	26.20	39.00	-0.05	7.54
13.634	26.07	38.87	-0.05	7.54
13.664	26.07	38.87	0.05	7.64
13.694	26.07	38.87	0.05	7.64
13.724	26.09	38.89	0.05	7.64
13.753	26.09	38.89	-0.03	7.56
13.783	26.09	38.89	-0.03	7.56
13.813	26.10	38.90	-0.03	7.56
13.843	26.10	38.90	-0.01	7.58
13.872	26.10	38.90	-0.01	7.58
13.902	26.07	38.87	-0.01	7.58
13.932	26.07	38.87	0.06	7.65
13.962	26.07	38.87	0.06	7.65
13.991	26.13	38.93	0.06	7.65
14.021	26.13	38.93	-0.05	7.53
14.051	26.13	38.93	-0.05	7.53
14.081	26.03	38.83	-0.05	7.53
14.110	26.03	38.83	0.05	7.64
14.140	26.03	38.83	0.05	7.64
14.170	26.08	38.88	0.05	7.64
14.200	26.08	38.88	-0.02	7.56
14.230	26.08	38.88	-0.02	7.56
14.259	26.08	38.88	-0.02	7.56
14.289	26.08	38.88	-0.02	7.57
14.319	26.08	38.88	-0.02	7.57
14.349	26.09	38.89	-0.02	7.57
14.378	26.09	38.89	0.06	7.65
14.408	26.09	38.89	0.06	7.65
14.438	26.33	39.13	0.06	7.65
14.468	26.33	39.13	-0.05	7.53
14.497	26.33	39.13	-0.05	7.53
14.527	26.13	38.93	-0.05	7.53
14.557	26.13	38.93	0.05	7.63
14.587	26.13	38.93	0.05	7.63
14.616	26.28	39.08	0.05	7.63
14.646	26.28	39.08	-0.02	7.57
14.676	26.28	39.08	-0.02	7.57
14.706	26.21	39.01	-0.02	7.57
14.735	26.21	39.01	-0.02	7.56
14.765	26.21	39.01	-0.02	7.56
14.795	26.20	39.00	-0.02	7.56
14.825	26.20	39.00	0.06	7.65
14.854	26.20	39.00	0.06	7.65
14.884	26.37	39.17	0.06	7.65
14.914	26.37	39.17	-0.05	7.53
14.944	26.37	39.17	-0.05	7.53
14.974	26.24	39.04	-0.05	7.53
15.003	26.24	39.04	0.04	7.63
15.033	26.24	39.04	0.04	7.63
15.063	26.34	39.14	0.04	7.63
15.093	26.34	39.14	-0.01	7.57
15.122	26.34	39.14	-0.01	7.57
15.152	26.34	39.14	-0.01	7.57
15.182	26.34	39.14	-0.03	7.55
15.212	26.34	39.14	-0.03	7.55
15.241	26.21	39.01	-0.03	7.55
15.271	26.21	39.01	0.06	7.65
15.301	26.21	39.01	0.06	7.65
15.331	26.44	39.24	0.06	7.65
15.360	26.44	39.24	-0.05	7.53
15.390	26.44	39.24	-0.05	7.53
15.420	26.40	39.20	-0.05	7.53
15.450	26.40	39.20	0.04	7.63
15.479	26.40	39.20	0.04	7.63
15.509	26.28	39.08	0.04	7.63
15.539	26.28	39.08	-0.01	7.58
15.569	26.28	39.08	-0.01	7.58
15.599	26.35	39.15	-0.01	7.58
15.628	26.35	39.15	-0.04	7.55
15.658	26.35	39.15	-0.04	7.55
15.688	26.32	39.12	-0.04	7.55
15.718	26.32	39.12	0.06	7.65
15.747	26.32	39.12	0.06	7.65
15.777	26.48	39.28	0.06	7.65
15.807	26.48	39.28	-0.05	7.54
15.837	26.48	39.28	-0.05	7.54
15.866	26.43	39.23	-0.05	7.54
15.896	26.43	39.23	0.04	7.63
15.926	26.43	39.23	0.04	7.63
15.956	26.37	39.17	0.04	7.63
15.985	26.37	39.17	0.00	7.59
16.015	26.37	39.17	0.00	7.59
16.045	26.40	39.20	0.00	7.59
16.075	26.40	39.20	-0.05	7.54
16.104	26.40	39.20	-0.05	7.54
16.134	26.40	39.20	-0.05	7.54
16.164	26.40	39.20	0.06	7.65
16.194	26.40	39.20	0.06	7.65
16.223	26.54	39.34	0.06	7.65
16.253	26.54	39.34	-0.05	7.54
16.283	26.54	39.34	-0.05	7.54
16.313	26.45	39.25	-0.05	7.54
16.343	26.45	39.25	0.04	7.63
16.372	26.45	39.25	0.04	7.63
16.402	26.45	39.25	0.04	7.63
16.432	26.45	39.25	0.01	7.60
16.462	26.45	39.25	0.01	7.60
16.491	26.41	39.21	0.01	7.60
16.521	26.41	39.21	-0.05	7.54
16.551	26.41	39.21	-0.05	7.54
16.581	26.38	39.18	-0.05	7.54
16.610	26.38	39.18	0.06	7.65
16.640	26.38	39.18	0.06	7.65
16.670	26.50	39.30	0.06	7.65
16.700	26.50	39.30	-0.04	7.54
16.729	26.50	39.30	-0.04	7.54
16.759	26.26	39.06	-0.04	7.54
16.789	26.26	39.06	0.03	7.62
16.819	26.26	39.06	0.03	7.62
16.848	26.35	39.15	0.03	7.62
16.878	26.35	39.15	0.02	7.60
16.908	26.35	39.15	0.02	7.60
16.938	26.25	39.05	0.02	7.60
16.967	26.25	39.05	-0.05	7.54
16.997	26.25	39.05	-0.05	7.54
17.027	26.31	39.11	-0.05	7.54
17.057	26.31	39.11	0.07	7.65
17.087	26.31	39.11	0.07	7.65
17.116	26.46	39.26	0.07	7.65
17.146	26.46	39.26	-0.04	7.55
17.176	26.46	39.26	-0.04	7.55
17.206	26.34	39.14	-0.04	7.55
17.235	26.34	39.14	0.03	7.61
17.265	26.34	39.14	0.03	7.61
17.295	26.24	39.04	0.03	7.61
17.325	26.24	39.04	0.03	7.62
17.354	26.24	39.04	0.03	7.62
17.384	26.21	39.01	0.03	7.62
17.414	26.21	39.01	-0.05	7.54
17.444	26.21	39.01	-0.05	7.54
17.473	26.17	38.97	-0.05	7.54
17.503	26.17	38.97	0.06	7.65
17.533	26.17	38.97	0.06	7.65
17.563	26.25	39.05	0.06	7.65
17.593	26.25	39.05	-0.04	7.55
17.622	26.25	39.05	-0.04	7.55
17.652	26.28	39.08	-0.04	7.55
17.682	26.28	39.08	0.02	7.61
17.712	26.28	39.08	0.02	7.61
17.741	26.08	38.88	0.02	7.61
17.771	26.08	38.88	0.04	7.63
17.801	26.08	38.88	0.04	7.63
17.831	26.14	38.94	0.04	7.63
17.860	26.14	38.94	-0.05	7.53
17.890	26.14	38.94	-0.05	7.53
17.920	26.11	38.91	-0.05	7.53
17.950	26.11	38.91	0.06	7.65
17.979	26.11	38.91	0.06	7.65
18.009	26.09	38.89	0.06	7.65
18.039	26.09	38.89	-0.03	7.55
18.069	26.09	38.89	-0.03	7.55
18.098	26.11	38.92	-0.03	7.55
18.128	26.11	38.92	0.02	7.61
18.158	26.11	38.92	0.02	7.61
18.188	26.08	38.88	0.02	7.61
18.217	26.08	38.88	0.05	7.63
18.247	26.08	38.88	0.05	7.63
18.277	26.32	39.12	0.05	7.63
18.307	26.32	39.12	-0.06	7.53
18.337	26.32	39.12	-0.06	7.53
18.366	26.36	39.16	-0.06	7.53
18.396	26.36	39.16	0.07	7.65
18.426	26.36	39.16	0.07	7.65
18.456	26.19	38.99	0.07	7.65
18.485	26.19	38.99	-0.04	7.55
18.515	26.19	38.99	-0.04	7.55
18.545	26.29	39.09	-0.04	7.55
18.575	26.29	39.09	0.01	7.60
18.604	26.29	39.09	0.01	7.60
18.634	26.25	39.05	0.01	7.60
18.664	26.25	39.05	0.06	7.64
18.694	26.25	39.05	0.06	7.64
18.723	26.21	39.01	0.06	7.64
18.753	26.21	39.01	-0.05	7.53
18.783	26.21	39.01	-0.05	7.53
18.813	26.25	39.05	-0.05	7.53
18.842	26.25	39.05	0.06	7.64
18.872	26.25	39.05	0.06	7.64
18.902	26.10	38.90	0.06	7.64
18.932	26.10	38.90	-0.03	7.56
18.961	26.10	38.90	-0.03	7.56
18.991	26.25	39.05	-0.03	7.56
19.021	26.25	39.05	0.00	7.59
19.051	26.25	39.05	0.00	7.59
19.080	26.23	39.03	0.00	7.59
19.110	26.23	39.03	0.06	7.65
19.140	26.23	39.03	0.06	7.65
19.170	26.21	39.02	0.06	7.65
19.200	26.21	39.02	-0.05	7.53
19.229	26.21	39.02	-0.05	7.53
19.259	26.20	39.00	-0.05	7.53
19.289	26.20	39.00	0.05	7.64
19.319	26.20	39.00	0.05	7.64
19.348	26.07	38.87	0.05	7.64
19.378	26.07	38.87	-0.02	7.56
19.408	26.07	38.87	-0.02	7.56
19.438	26.19	38.99	-0.02	7.56
19.467	26.19	38.99	-0.01	7.58
19.497	26.19	38.99	-0.01	7.58
19.527	26.22	39.02	-0.01	7.58
19.557	26.22	39.02	0.06	7.64
19.586	26.22	39.02	0.06	7.64
19.616	26.07	38.87	0.06	7.64
19.646	26.07	38.87	-0.06	7.53
19.676	26.07	38.87	-0.06	7.53
19.705	26.09	38.89	-0.06	7.53
19.735	26.09	38.89	0.05	7.64
19.765	26.09	38.89	0.05	7.64
19.795	26.19	38.99	0.05	7.64
19.825	26.19	38.99	-0.02	7.56
19.854	26.19	38.99	-0.02	7.56
19.884	26.16	38.96	-0.02	7.56
19.914	26.16	38.96	-0.01	7.58
19.944	26.16	38.96	-0.01	7.58
19.973	26.13	38.93	-0.01	7.58
20.003	26.13	38.93	0.06	7.65
20.033	26.13	38.93	0.06	7.65
20.063	26.15	38.95	0.06	7.65
20.092	26.15	38.95	-0.06	7.53
20.122	26.15	38.95	-0.06	7.53
20.152	26.13	38.93	-0.06	7.53
20.182	26.13	38.93	0.05	7.63
20.211	26.13	38.93	0.05	7.63
20.241	26.11	38.91	0.05	7.63
20.271	26.11	38.91	-0.02	7.57
20.301	26.11	38.91	-0.02	7.57
20.330	26.05	38.85	-0.02	7.57
20.360	26.05	38.85	-0.02	7.57
20.390	26.05	38.85	-0.02	7.57
20.420	26.06	38.86	-0.02	7.57
20.449	26.06	38.86	0.06	7.65
20.479	26.06	38.86	0.06	7.65
20.509	26.13	38.93	0.06	7.65
20.539	26.13	38.93	-0.05	7.53
20.569	26.13	38.93	-0.05	7.53
20.598	26.01	38.82	-0.05	7.53
20.628	26.01	38.82	0.05	7.63
20.658	26.01	38.82	0.05	7.63
20.688	26.04	38.84	0.05	7.63
20.717	26.04	38.84	-0.02	7.57
20.747	26.04	38.84	-0.02	7.57
20.777	25.99	38.79	-0.02	7.57
20.807	25.99	38.79	-0.02	7.56
20.836	25.99	38.79	-0.02	7.56
20.866	26.09	38.89	-0.02	7.56
20.896	26.09	38.89	0.06	7.65
20.926	26.09	38.89	0.06	7.65
20.955	25.98	38.78	0.06	7.65
20.985	25.98	38.78	-0.05	7.53
21.015	25.98	38.78	-0.05	7.53
21.045	25.96	38.76	-0.05	7.53
21.074	25.96	38.76	0.04	7.63
21.104	25.96	38.76	0.04	7.63
21.134	26.00	38.80	0.04	7.63
21.164	26.00	38.80	-0.01	7.57
21.193	26.00	38.80	-0.01	7.57
21.223	25.99	38.79	-0.01	7.57
21.253	25.99	38.79	-0.03	7.55
21.283	25.99	38.79	-0.03	7.55
21.313	25.90	38.70	-0.03	7.55
21.342	25.90	38.70	0.06	7.65
21.372	25.90	38.70	0.06	7.65
21.402	25.99	38.79	0.06	7.65
21.432	25.99	38.79	-0.05	7.54
21.461	25.99	38.79	-0.05	7.54
21.491	25.93	38.73	-0.05	7.54
21.521	25.93	38.73	0.04	7.63
21.551	25.93	38.73	0.04	7.63
21.580	25.83	38.63	0.04	7.63
21.610	25.83	38.63	-0.01	7.58
21.640	25.83	38.63	-0.01	7.58
21.670	25.93	38.73	-0.01	7.58
21.699	25.93	38.73	-0.04	7.55
21.729	25.93	38.73	-0.04	7.55
21.759	25.95	38.75	-0.04	7.55
21.789	25.95	38.75	0.06	7.65
21.818	25.95	38.75	0.06	7.65
21.848	25.90	38.70	0.06	7.65
21.878	25.90	38.70	-0.05	7.53
21.908	25.90	38.70	-0.05	7.53
21.937	25.90	38.70	-0.05	7.53
21.967	25.90	38.70	0.04	7.62
21.997	25.90	38.70	0.04	7.62
22.027	25.91	38.71	0.04	7.62
22.056	25.91	38.71	-0.00	7.58
22.086	25.91	38.71	-0.00	7.58
22.116	25.84	38.64	-0.00	7.58
22.146	25.84	38.64	-0.04	7.54
22.176	25.84	38.64	-0.04	7.54
22.205	25.84	38.64	-0.04	7.54
22.235	25.84	38.64	0.07	7.65
22.265	25.84	38.64	0.07	7.65
22.295	25.96	38.76	0.07	7.65
22.324	25.96	38.76	-0.05	7.53
22.354	25.96	38.76	-0.05	7.53
22.384	25.93	38.73	-0.05	7.53
22.414	25.93	38.73	0.04	7.63
22.443	25.93	38.73	0.04	7.63
22.473	25.85	38.65	0.04	7.63
22.503	25.85	38.65	-0.00	7.58
22.533	25.85	38.65	-0.00	7.58
22.562	25.93	38.73	-0.00	7.58
22.592	25.93	38.73	-0.04	7.54
22.622	25.93	38.73	-0.04	7.54
22.652	25.91	38.71	-0.04	7.54
22.681	25.91	38.71	0.06	7.65
22.711	25.91	38.71	0.06	7.65
22.741	25.94	38.74	0.06	7.65
22.771	25.94	38.74	-0.05	7.54
22.800	25.94	38.74	-0.05	7.54
22.830	25.93	38.73	-0.05	7.54
22.860	25.93	38.73	0.04	7.63
22.890	25.93	38.73	0.04	7.63
22.920	25.85	38.65	0.04	7.63
22.949	25.85	38.65	0.00	7.59
22.979	25.85	38.65	0.00	7.59
23.009	25.77	38.58	0.00	7.59
23.039	25.77	38.58	-0.05	7.54
23.068	25.77	38.58	-0.05	7.54
23.098	25.78	38.58	-0.05	7.54
23.128	25.78	38.58	0.06	7.65
23.158	25.78	38.58	0.06	7.65
23.187	25.81	38.61	0.06	7.65
23.217	25.81	38.61	-0.04	7.54
23.247	25.81	38.61	-0.04	7.54
23.277	25.88	38.68	-0.04	7.54
23.306	25.88	38.68	0.04	7.62
23.336	25.88	38.68	0.04	7.62
23.366	25.84	38.64	0.04	7.62
23.396	25.84	38.64	0.00	7.59
23.425	25.84	38.64	0.00	7.59
23.455	25.82	38.62	0.00	7.59
23.485	25.82	38.62	-0.05	7.54
23.515	25.82	38.62	-0.05	7.54
23.545	25.85	38.65	-0.05	7.54
23.574	25.85	38.65	0.06	7.65
23.604	25.85	38.65	0.06	7.65
23.634	25.84	38.64	0.06	7.65
23.664	25.84	38.64	-0.04	7.54
23.693	25.84	38.64	-0.04	7.54
23.723	25.96	38.76	-0.04	7.54
23.753	25.96	38.76	0.03	7.62
23.783	25.96	38.76	0.03	7.62
23.812	25.82	38.62	0.03	7.62
23.842	25.82	38.62	0.01	7.60
23.872	25.82	38.62	0.01	7.60
23.902	25.81	38.61	0.01	7.60
23.931	25.81	38.61	-0.05	7.53
23.961	25.81	38.61	-0.05	7.53
23.991	25.79	38.59	-0.05	7.53
24.021	25.79	38.59	0.07	7.65
24.050	25.79	38.59	0.07	7.65
24.080	25.78	38.58	0.07	7.65
24.110	25.78	38.58	-0.04	7.54
24.140	25.78	38.58	-0.04	7.54
24.169	25.91	38.71	-0.04	7.54
24.199	25.91	38.71	0.04	7.62
24.229	25.91	38.71	0.04	7.62
24.259	25.97	38.77	0.04	7.62
24.289	25.97	38.77	0.01	7.60
24.318	25.97	38.77	0.01	7.60
24.348	25.83	38.63	0.01	7.60
24.378	25.83	38.63	-0.05	7.53
24.408	25.83	38.63	-0.05	7.53
24.437	25.76	38.56	-0.05	7.53
24.467	25.76	38.56	0.06	7.65
24.497	25.76	38.56	0.06	7.65
24.527	25.84	38.64	0.06	7.65
24.556	25.84	38.64	-0.05	7.54
24.586	25.84	38.64	-0.05	7.54
24.616	25.97	38.78	-0.05	7.54
24.646	25.97	38.78	0.03	7.62
24.675	25.97	38.78	0.03	7.62
24.705	25.80	38.60	0.03	7.62
24.735	25.80	38.60	0.01	7.60
24.765	25.80	38.60	0.01	7.60
24.794	25.78	38.58	0.01	7.60
24.824	25.78	38.58	-0.05	7.54
24.854	25.78	38.58	-0.05	7.54
24.884	25.80	38.60	-0.05	7.54
24.913	25.80	38.60	0.06	7.65
24.943	25.80	38.60	0.06	7.65
24.973	25.82	38.62	0.06	7.65
25.003	25.82	38.62	-0.04	7.54
25.033	25.82	38.62	-0.04	7.54
25.062	25.81	38.62	-0.04	7.54
25.092	25.81	38.62	0.03	7.62
25.122	25.81	38.62	0.03	7.62
25.152	25.86	38.66	0.03	7.62
25.181	25.86	38.66	0.01	7.60
25.211	25.86	38.66	0.01	7.60
25.241	25.72	38.53	0.01	7.60
25.271	25.72	38.53	-0.05	7.54
25.300	25.72	38.53	-0.05	7.54
25.330	25.82	38.62	-0.05	7.54
25.360	25.82	38.62	0.06	7.65
25.390	25.82	38.62	0.06	7.65
25.419	25.71	38.51	0.06	7.65
25.449	25.71	38.51	-0.05	7.54
25.479	25.71	38.51	-0.05	7.54
25.509	25.91	38.71	-0.05	7.54
25.538	25.91	38.71	0.04	7.62
25.568	25.91	38.71	0.04	7.62
25.598	25.78	38.58	0.04	7.62
25.628	25.78	38.58	0.01	7.60
25.658	25.78	38.58	0.01	7.60
25.687	25.80	38.60	0.01	7.60
25.717	25.80	38.60	-0.05	7.53
25.747	25.80	38.60	-0.05	7.53
25.777	25.77	38.57	-0.05	7.53
25.806	25.77	38.57	0.06	7.65
25.836	25.77	38.57	0.06	7.65
25.866	25.78	38.58	0.06	7.65
25.896	25.78	38.58	-0.04	7.54
25.925	25.78	38.58	-0.04	7.54
25.955	25.75	38.55	-0.04	7.54
25.985	25.75	38.55	0.04	7.62
26.015	25.75	38.55	0.04	7.62
26.044	25.79	38.59	0.04	7.62
26.074	25.79	38.59	0.01	7.60
26.104	25.79	38.59	0.01	7.60
26.134	25.80	38.60	0.01	7.60
26.163	25.80	38.60	-0.05	7.53
26.193	25.80	38.60	-0.05	7.53
26.223	25.74	38.54	-0.05	7.53
26.253	25.74	38.54	0.06	7.65
26.282	25.74	38.54	0.06	7.65
26.312	25.77	38.57	0.06	7.65
26.342	25.77	38.57	-0.04	7.54
26.372	25.77	38.57	-0.04	7.54
26.402	25.79	38.59	-0.04	7.54
26.431	25.79	38.59	0.04	7.62
26.461	25.79	38.59	0.04	7.62
26.491	25.82	38.62	0.04	7.62
26.521	25.82	38.62	0.01	7.59
26.550	25.82	38.62	0.01	7.59
26.580	25.74	38.54	0.01	7.59
26.610	25.74	38.54	-0.05	7.53
26.640	25.74	38.54	-0.05	7.53
26.669	25.85	38.65	-0.05	7.53
26.699	25.85	38.65	0.06	7.65
26.729	25.85	38.65	0.06	7.65
26.759	25.77	38.58	0.06	7.65
26.788	25.77	38.58	-0.04	7.54
26.818	25.77	38.58	-0.04	7.54
26.848	25.68	38.48	-0.04	7.54
26.878	25.68	38.48	0.04	7.62
26.907	25.68	38.48	0.04	7.62
26.937	25.98	38.78	0.04	7.62
26.967	25.98	38.78	0.01	7.59
26.997	25.98	38.78	0.01	7.59
27.026	25.89	38.69	0.01	7.59
27.056	25.89	38.69	-0.05	7.53
27.086	25.89	38.69	-0.05	7.53
27.116	25.90	38.70	-0.05	7.53
27.146	25.90	38.70	0.06	7.65
27.175	25.90	38.70	0.06	7.65
27.205	25.76	38.56	0.06	7.65
27.235	25.76	38.56	-0.05	7.54
27.265	25.76	38.56	-0.05	7.54
27.294	25.77	38.57	-0.05	7.54
27.324	25.77	38.57	0.04	7.62
27.354	25.77	38.57	0.04	7.62
27.384	25.97	38.77	0.04	7.62
27.413	25.97	38.77	0.00	7.59
27.443	25.97	38.77	0.00	7.59
27.473	25.89	38.69	0.00	7.59
27.503	25.89	38.69	-0.05	7.54
27.532	25.89	38.69	-0.05	7.54
27.562	25.82	38.62	-0.05	7.54
27.592	25.82	38.62	0.06	7.65
27.622	25.82	38.62	0.06	7.65
27.651	25.75	38.55	0.06	7.65
27.681	25.75	38.55	-0.05	7.54
27.711	25.75	38.55	-0.05	7.54
27.741	25.89	38.69	-0.05	7.54
27.771	25.89	38.69	0.03	7.62
27.800	25.89	38.69	0.03	7.62
27.830	25.88	38.68	0.03	7.62
27.860	25.88	38.68	0.00	7.59
27.890	25.88	38.68	0.00	7.59
27.919	25.79	38.59	0.00	7.59
27.949	25.79	38.59	-0.05	7.53
27.979	25.79	38.59	-0.05	7.53
28.009	25.81	38.61	-0.05	7.53
28.038	25.81	38.61	0.06	7.65
28.068	25.81	38.61	0.06	7.65
28.098	25.77	38.58	0.06	7.65
28.128	25.77	38.58	-0.05	7.54
28.157	25.77	38.58	-0.05	7.54
28.187	25.83	38.63	-0.05	7.54
28.217	25.83	38.63	0.04	7.62
28.247	25.83	38.63	0.04	7.62
28.276	25.83	38.63	0.04	7.62
28.306	25.83	38.63	-0.00	7.58
28.336	25.83	38.63	-0.00	7.58
28.366	25.86	38.66	-0.00	7.58
28.396	25.86	38.66	-0.04	7.54
28.425	25.86	38.66	-0.04	7.54
28.455	25.83	38.63	-0.04	7.54
28.485	25.83	38.63	0.06	7.65
28.515	25.83	38.63	0.06	7.65
28.544	25.85	38.65	0.06	7.65
28.574	25.85	38.65	-0.05	7.54
28.604	25.85	38.65	-0.05	7.54
28.634	25.85	38.65	-0.05	7.54
28.663	25.85	38.65	0.04	7.62
28.693	25.85	38.65	0.04	7.62
28.723	25.74	38.54	0.04	7.62
28.753	25.74	38.54	-0.01	7.58
28.782	25.74	38.54	-0.01	7.58
28.812	25.82	38.62	-0.01	7.58
28.842	25.82	38.62	-0.04	7.54
28.872	25.82	38.62	-0.04	7.54
28.901	25.85	38.65	-0.04	7.54
28.931	25.85	38.65	0.07	7.65
28.961	25.85	38.65	0.07	7.65
28.991	25.82	38.62	0.07	7.65
29.020	25.82	38.62	-0.05	7.53
29.050	25.82	38.62	-0.05	7.53
29.080	25.80	38.60	-0.05	7.53
29.110	25.80	38.60	0.04	7.63
29.140	25.80	38.60	0.04	7.63
29.169	25.78	38.58	0.04	7.63
29.199	25.78	38.58	-0.01	7.58
29.229	25.78	38.58	-0.01	7.58
29.259	25.93	38.73	-0.01	7.58
29.288	25.93	38.73	-0.04	7.55
29.318	25.93	38.73	-0.04	7.55
29.348	25.85	38.65	-0.04	7.55
29.378	25.85	38.65	0.06	7.65
29.407	25.85	38.65	0.06	7.65
29.437	25.84	38.64	0.06	7.65
29.467	25.84	38.64	-0.05	7.53
29.497	25.84	38.64	-0.05	7.53
29.526	25.70	38.50	-0.05	7.53
29.556	25.70	38.50	0.04	7.63
29.586	25.70	38.50	0.04	7.63
29.616	25.77	38.57	0.04	7.63
29.645	25.77	38.57	-0.01	7.58
29.675	25.77	38.57	-0.01	7.58
29.705	25.75	38.55	-0.01	7.58
29.735	25.75	38.55	-0.03	7.55
29.764	25.75	38.55	-0.03	7.55
29.794	25.81	38.61	-0.03	7.55
29.824	25.81	38.61	0.06	7.65
29.854	25.81	38.61	0.06	7.65
29.883	25.75	38.55	0.06	7.65
29.913	25.75	38.55	-0.05	7.53
29.943	25.75	38.55	-0.05	7.53
29.973	25.78	38.58	-0.05	7.53
30.003	25.78	38.58	0.04	7.63
30.032	25.78	38.58	0.04	7.63
30.062	25.81	38.61	0.04	7.63
30.092	25.81	38.61	-0.01	7.57
30.122	25.81	38.61	-0.01	7.57
30.151	25.76	38.57	-0.01	7.57
30.181	25.76	38.57	-0.03	7.56
30.211	25.76	38.57	-0.03	7.56
30.241	25.82	38.62	-0.03	7.56
30.270	25.82	38.62	0.06	7.65
30.300	25.82	38.62	0.06	7.65
30.330	25.72	38.52	0.06	7.65
30.360	25.72	38.52	-0.05	7.53
30.389	25.72	38.52	-0.05	7.53
30.419	25.80	38.60	-0.05	7.53
30.449	25.80	38.60	0.05	7.63
30.479	25.80	38.60	0.05	7.63
30.508	25.77	38.57	0.05	7.63
30.538	25.77	38.57	-0.01	7.57
30.568	25.77	38.57	-0.01	7.57
30.598	25.72	38.52	-0.01	7.57
30.627	25.72	38.52	-0.02	7.56
30.657	25.72	38.52	-0.02	7.56
30.687	25.77	38.57	-0.02	7.56
30.717	25.77	38.57	0.06	7.65
30.746	25.77	38.57	0.06	7.65
30.776	25.81	38.61	0.06	7.65
30.806	25.81	38.61	-0.06	7.53
30.836	25.81	38.61	-0.06	7.53
30.866	25.71	38.51	-0.06	7.53
30.895	25.71	38.51	0.05	7.63
30.925	25.71	38.51	0.05	7.63
30.955	25.80	38.60	0.05	7.63
30.985	25.80	38.60	-0.02	7.57
31.014	25.80	38.60	-0.02	7.57
31.044	25.81	38.61	-0.02	7.57
31.074	25.81	38.61	-0.02	7.57
31.104	25.81	38.61	-0.02	7.57
31.133	25.80	38.60	-0.02	7.57
31.163	25.80	38.60	0.06	7.65
31.193	25.80	38.60	0.06	7.65
31.223	25.76	38.56	0.06	7.65
31.252	25.76	38.56	-0.06	7.53
31.282	25.76	38.56	-0.06	7.53
31.312	25.88	38.68	-0.06	7.53
31.342	25.88	38.68	0.05	7.64
31.371	25.88	38.68	0.05	7.64
31.401	25.66	38.46	0.05	7.64
31.431	25.66	38.46	-0.03	7.56
31.461	25.66	38.46	-0.03	7.56
31.491	25.74	38.54	-0.03	7.56
31.520	25.74	38.54	-0.01	7.58
31.550	25.74	38.54	-0.01	7.58
31.580	25.81	38.61	-0.01	7.58
31.610	25.81	38.61	0.06	7.65
31.639	25.81	38.61	0.06	7.65
31.669	25.72	38.52	0.06	7.65
31.699	25.72	38.52	-0.05	7.54
31.729	25.72	38.52	-0.05	7.54
31.758	25.73	38.53	-0.05	7.54
31.788	25.73	38.53	0.05	7.64
31.818	25.73	38.53	0.05	7.64
31.848	25.80	38.60	0.05	7.64
31.877	25.80	38.60	-0.03	7.56
31.907	25.80	38.60	-0.03	7.56
31.937	25.72	38.52	-0.03	7.56
31.967	25.72	38.52	-0.00	7.58
31.996	25.72	38.52	-0.00	7.58
32.026	25.78	38.58	-0.00	7.58
32.056	25.78	38.58	0.06	7.64
32.086	25.78	38.58	0.06	7.64
32.116	25.79	38.59	0.06	7.64
32.145	25.79	38.59	-0.06	7.53
32.175	25.79	38.59	-0.06	7.53
32.205	25.70	38.50	-0.06	7.53
32.235	25.70	38.50	0.05	7.64
32.264	25.70	38.50	0.05	7.64
32.294	25.77	38.57	0.05	7.64
32.324	25.77	38.57	-0.03	7.56
32.354	25.77	38.57	-0.03	7.56
32.383	25.77	38.57	-0.03	7.56
32.413	25.77	38.57	0.00	7.59
32.443	25.77	38.57	0.00	7.59
32.473	25.65	38.45	0.00	7.59
32.502	25.65	38.45	0.06	7.65
32.532	25.65	38.45	0.06	7.65
32.562	25.80	38.60	0.06	7.65
32.592	25.80	38.60	-0.05	7.53
32.621	25.80	38.60	-0.05	7.53
32.651	25.80	38.60	-0.05	7.53
32.681	25.80	38.60	0.05	7.64
32.711	25.80	38.60	0.05	7.64
32.740	25.65	38.45	0.05	7.64
32.770	25.65	38.45	-0.03	7.56
32.800	25.65	38.45	-0.03	7.56
32.830	25.72	38.53	-0.03	7.56
32.859	25.72	38.53	0.01	7.59
32.889	25.72	38.53	0.01	7.59
32.919	25.72	38.52	0.01	7.59
32.949	25.72	38.52	0.05	7.64
32.978	25.72	38.52	0.05	7.64
33.008	25.71	38.51	0.05	7.64
33.038	25.71	38.51	-0.05	7.53
33.068	25.71	38.51	-0.05	7.53
33.097	25.62	38.42	-0.05	7.53
33.127	25.62	38.42	0.06	7.65
33.157	25.62	38.42	0.06	7.65
33.187	25.70	38.50	0.06	7.65
33.217	25.70	38.50	-0.03	7.55
33.246	25.70	38.50	-0.03	7.55
33.276	25.60	38.40	-0.03	7.55
33.306	25.60	38.40	0.01	7.60
33.336	25.60	38.40	0.01	7.60
33.365	25.61	38.41	0.01	7.60
33.395	25.61	38.41	0.05	7.64
33.425	25.61	38.41	0.05	7.64
33.455	25.79	38.59	0.05	7.64
33.484	25.79	38.59	-0.05	7.53
33.514	25.79	38.59	-0.05	7.53
33.544	25.69	38.49	-0.05	7.53
33.574	25.69	38.49	0.06	7.65
33.603	25.69	38.49	0.06	7.65
33.633	25.60	38.40	0.06	7.65
33.663	25.60	38.40	-0.03	7.55
33.693	25.60	38.40	-0.03	7.55
33.722	25.63	38.43	-0.03	7.55
33.752	25.63	38.43	0.02	7.61
33.782	25.63	38.43	0.02	7.61
33.812	25.58	38.38	0.02	7.61
33.841	25.58	38.38	0.04	7.63
33.871	25.58	38.38	0.04	7.63
33.901	25.76	38.56	0.04	7.63
33.931	25.76	38.56	-0.05	7.54
33.961	25.76	38.56	-0.05	7.54
33.990	25.70	38.50	-0.05	7.54
34.020	25.70	38.50	0.06	7.64
34.050	25.70	38.50	0.06	7.64
34.080	25.63	38.43	0.06	7.64
34.109	25.63	38.43	-0.03	7.55
34.139	25.63	38.43	-0.03	7.55
34.169	25.69	38.49	-0.03	7.55
34.199	25.69	38.49	0.02	7.61
34.228	25.69	38.49	0.02	7.61
34.258	25.61	38.42	0.02	7.61
34.288	25.61	38.42	0.04	7.63
34.318	25.61	38.42	0.04	7.63
34.347	25.70	38.50	0.04	7.63
34.377	25.70	38.50	-0.05	7.53
34.407	25.70	38.50	-0.05	7.53
34.437	25.65	38.45	-0.05	7.53
34.466	25.65	38.45	0.06	7.65
34.496	25.65	38.45	0.06	7.65
34.526	25.65	38.45	0.06	7.65
34.556	25.65	38.45	-0.04	7.55
34.586	25.65	38.45	-0.04	7.55
34.615	25.55	38.35	-0.04	7.55
34.645	25.55	38.35	0.02	7.61
34.675	25.55	38.35	0.02	7.61
34.705	25.68	38.48	0.02	7.61
34.734	25.68	38.48	0.04	7.62
34.764	25.68	38.48	0.04	7.62
34.794	25.63	38.43	0.04	7.62
34.824	25.63	38.43	-0.05	7.53
34.853	25.63	38.43	-0.05	7.53
34.883	25.80	38.60	-0.05	7.53
34.913	25.80	38.60	0.06	7.65
34.943	25.80	38.60	0.06	7.65
34.972	25.61	38.41	0.06	7.65
35.002	25.61	38.41	-0.04	7.55
35.032	25.61	38.41	-0.04	7.55
35.062	25.67	38.47	-0.04	7.55
35.091	25.67	38.47	0.03	7.61
35.121	25.67	38.47	0.03	7.61
35.151	25.72	38.52	0.03	7.61
35.181	25.72	38.52	0.03	7.62
35.211	25.72	38.52	0.03	7.62
35.240	25.56	38.36	0.03	7.62
35.270	25.56	38.36	-0.05	7.53
35.300	25.56	38.36	-0.05	7.53
35.330	25.66	38.46	-0.05	7.53
35.359	25.66	38.46	0.06	7.65
35.389	25.66	38.46	0.06	7.65
35.419	25.64	38.44	0.06	7.65
35.449	25.64	38.44	-0.04	7.55
35.478	25.64	38.44	-0.04	7.55
35.508	25.59	38.39	-0.04	7.55
35.538	25.59	38.39	0.03	7.62
35.568	25.59	38.39	0.03	7.62
35.597	25.64	38.44	0.03	7.62
35.627	25.64	38.44	0.03	7.61
35.657	25.64	38.44	0.03	7.61
35.687	25.62	38.42	0.03	7.61
35.716	25.62	38.42	-0.05	7.53
35.746	25.62	38.42	-0.05	7.53
35.776	25.66	38.46	-0.05	7.53
35.806	25.66	38.46	0.06	7.65
35.835	25.66	38.46	0.06	7.65
35.865	25.64	38.44	0.06	7.65
35.895	25.64	38.44	-0.04	7.54
35.925	25.64	38.44	-0.04	7.54
35.955	25.61	38.41	-0.04	7.54
35.984	25.61	38.41	0.04	7.62
36.014	25.61	38.41	0.04	7.62
36.044	25.64	38.44	0.04	7.62
36.074	25.64	38.44	0.02	7.61
36.103	25.64	38.44	0.02	7.61
36.133	25.54	38.34	0.02	7.61
36.163	25.54	38.34	-0.05	7.54
36.193	25.54	38.34	-0.05	7.54
36.222	25.62	38.42	-0.05	7.54
36.252	25.62	38.42	0.06	7.65
36.282	25.62	38.42	0.06	7.65
36.312	25.65	38.45	0.06	7.65
36.341	25.65	38.45	-0.04	7.54
36.371	25.65	38.45	-0.04	7.54
36.401	25.56	38.36	-0.04	7.54
36.431	25.56	38.36	0.03	7.62
36.460	25.56	38.36	0.03	7.62
36.490	25.57	38.37	0.03	7.62
36.520	25.57	38.37	0.02	7.61
36.550	25.57	38.37	0.02	7.61
36.579	25.56	38.37	0.02	7.61
36.609	25.56	38.37	-0.05	7.53
36.639	25.56	38.37	-0.05	7.53
36.669	25.64	38.44	-0.05	7.53
36.699	25.64	38.44	0.06	7.65
36.728	25.64	38.44	0.06	7.65
36.758	25.53	38.33	0.06	7.65
36.788	25.53	38.33	-0.05	7.54
36.818	25.53	38.33	-0.05	7.54
36.847	25.62	38.42	-0.05	7.54
36.877	25.62	38.42	0.03	7.62
36.907	25.62	38.42	0.03	7.62
36.937	25.50	38.30	0.03	7.62
36.966	25.50	38.30	0.01	7.60
36.996	25.50	38.30	0.01	7.60
37.026	25.54	38.34	0.01	7.60
37.056	25.54	38.34	-0.05	7.53
37.085	25.54	38.34	-0.05	7.53
37.115	25.51	38.32	-0.05	7.53
37.145	25.51	38.32	0.06	7.65
37.175	25.51	38.32	0.06	7.65
37.204	25.61	38.41	0.06	7.65
37.234	25.61	38.41	-0.05	7.54
37.264	25.61	38.41	-0.05	7.54
37.294	25.51	38.31	-0.05	7.54
37.324	25.51	38.31	0.03	7.62
37.353	25.51	38.31	0.03	7.62
37.383	25.52	38.32	0.03	7.62
37.413	25.52	38.32	0.01	7.59
37.443	25.52	38.32	0.01	7.59
37.472	25.49	38.29	0.01	7.59
37.502	25.49	38.29	-0.05	7.54
37.532	25.49	38.29	-0.05	7.54
37.562	25.62	38.42	-0.05	7.54
37.591	25.62	38.42	0.07	7.65
37.621	25.62	38.42	0.07	7.65
37.651	25.55	38.35	0.07	7.65
37.681	25.55	38.35	-0.05	7.54
37.710	25.55	38.35	-0.05	7.54
37.740	25.55	38.35	-0.05	7.54
37.770	25.55	38.35	0.04	7.62
37.800	25.55	38.35	0.04	7.62
37.829	25.54	38.34	0.04	7.62
37.859	25.54	38.34	0.01	7.59
37.889	25.54	38.34	0.01	7.59
37.919	25.54	38.34	0.01	7.59
37.949	25.54	38.34	-0.05	7.54
37.978	25.54	38.34	-0.05	7.54
38.008	25.47	38.27	-0.05	7.54
38.038	25.47	38.27	0.06	7.65
38.068	25.47	38.27	0.06	7.65
38.097	25.59	38.39	0.06	7.65
38.127	25.59	38.39	-0.05	7.54
38.157	25.59	38.39	-0.05	7.54
38.187	25.55	38.35	-0.05	7.54
38.216	25.55	38.35	0.03	7.62
38.246	25.55	38.35	0.03	7.62
38.276	25.53	38.33	0.03	7.62
38.306	25.53	38.33	0.00	7.59
38.335	25.53	38.33	0.00	7.59
38.365	25.44	38.24	0.00	7.59
38.395	25.44	38.24	-0.05	7.54
38.425	25.44	38.24	-0.05	7.54
38.454	25.55	38.35	-0.05	7.54
38.484	25.55	38.35	0.06	7.65
38.514	25.55	38.35	0.06	7.65
38.544	25.58	38.38	0.06	7.65
38.573	25.58	38.38	-0.05	7.54
38.603	25.58	38.38	-0.05	7.54
38.633	25.50	38.30	-0.05	7.54
38.663	25.50	38.30	0.04	7.63
38.692	25.50	38.30	0.04	7.63
38.722	25.49	38.29	0.04	7.63
38.752	25.49	38.29	-0.00	7.58
38.782	25.49	38.29	-0.00	7.58
38.811	25.60	38.40	-0.00	7.58
38.841	25.60	38.40	-0.05	7.54
38.871	25.60	38.40	-0.05	7.54
38.901	25.52	38.32	-0.05	7.54
38.931	25.52	38.32	0.06	7.64
38.960	25.52	38.32	0.06	7.64
38.990	25.52	38.32	0.06	7.64
39.020	25.52	38.32	-0.05	7.53
39.050	25.52	38.32	-0.05	7.53
39.079	25.60	38.40	-0.05	7.53
39.109	25.60	38.40	0.04	7.63
39.139	25.60	38.40	0.04	7.63
39.169	25.58	38.38	0.04	7.63
39.198	25.58	38.38	-0.00	7.58
39.228	25.58	38.38	-0.00	7.58
39.258	25.57	38.38	-0.00	7.58
39.288	25.57	38.38	-0.04	7.55
39.317	25.57	38.38	-0.04	7.55
39.347	25.43	38.23	-0.04	7.55
39.377	25.43	38.23	0.06	7.65
39.407	25.43	38.23	0.06	7.65
39.437	25.53	38.33	0.06	7.65
39.466	25.53	38.33	-0.05	7.53
39.496	25.53	38.33	-0.05	7.53
39.526	25.61	38.41	-0.05	7.53
39.556	25.61	38.41	0.04	7.62
39.585	25.61	38.41	0.04	7.62
39.615	25.62	38.42	0.04	7.62
39.645	25.62	38.42	-0.01	7.58
39.675	25.62	38.42	-0.01	7.58
39.704	25.57	38.37	-0.01	7.58
39.734	25.57	38.37	-0.04	7.55
39.764	25.57	38.37	-0.04	7.55
39.794	25.53	38.33	-0.04	7.55
39.823	25.53	38.33	0.06	7.65
39.853	25.53	38.33	0.06	7.65
39.883	25.34	38.14	0.06	7.65
39.913	25.34	38.14	-0.05	7.53
39.942	25.34	38.14	-0.05	7.53
39.972	25.65	38.45	-0.05	7.53
40.002	25.65	38.45	0.04	7.63
40.032	25.65	38.45	0.04	7.63
40.061	25.60	38.40	0.04	7.63
40.091	25.60	38.40	-0.01	7.58
40.121	25.60	38.40	-0.01	7.58
40.151	25.52	38.32	-0.01	7.58
40.180	25.52	38.32	-0.03	7.55
40.210	25.52	38.32	-0.03	7.55
40.240	25.51	38.31	-0.03	7.55
40.270	25.51	38.31	0.06	7.65
40.300	25.51	38.31	0.06	7.65
40.329	25.48	38.28	0.06	7.65
40.359	25.48	38.28	-0.05	7.53
40.389	25.48	38.28	-0.05	7.53
40.419	25.61	38.41	-0.05	7.53
40.448	25.61	38.41	0.04	7.63
40.478	25.61	38.41	0.04	7.63
40.508	25.66	38.47	0.04	7.63
40.538	25.66	38.47	-0.01	7.57
40.567	25.66	38.47	-0.01	7.57
40.597	25.55	38.35	-0.01	7.57
40.627	25.55	38.35	-0.03	7.55
40.657	25.55	38.35	-0.03	7.55
40.686	25.54	38.34	-0.03	7.55
40.716	25.54	38.34	0.06	7.65
40.746	25.54	38.34	0.06	7.65
40.776	25.56	38.36	0.06	7.65
40.805	25.56	38.36	-0.05	7.53
40.835	25.56	38.36	-0.05	7.53
40.865	25.62	38.42	-0.05	7.53
40.895	25.62	38.42	0.04	7.63
40.925	25.62	38.42	0.04	7.63
40.954	25.56	38.36	0.04	7.63
40.984	25.56	38.36	-0.01	7.58
41.014	25.56	38.36	-0.01	7.58
41.044	25.53	38.33	-0.01	7.58
41.073	25.53	38.33	-0.04	7.55
41.103	25.53	38.33	-0.04	7.55
41.133	25.51	38.31	-0.04	7.55
41.163	25.51	38.31	0.06	7.65
41.192	25.51	38.31	0.06	7.65
41.222	25.54	38.34	0.06	7.65
41.252	25.54	38.34	-0.05	7.53
41.282	25.54	38.34	-0.05	7.53
41.311	25.54	38.34	-0.05	7.53
41.341	25.54	38.34	0.04	7.63
41.371	25.54	38.34	0.04	7.63
41.401	25.56	38.36	0.04	7.63
41.431	25.56	38.36	-0.01	7.58
41.460	25.56	38.36	-0.01	7.58
41.490	25.53	38.33	-0.01	7.58
41.520	25.53	38.33	-0.03	7.56
41.550	25.53	38.33	-0.03	7.56
41.579	25.52	38.32	-0.03	7.56
41.609	25.52	38.32	0.06	7.65
41.639	25.52	38.32	0.06	7.65
41.669	25.51	38.31	0.06	7.65
41.698	25.51	38.31	-0.05	7.53
41.728	25.51	38.31	-0.05	7.53
41.758	25.51	38.31	-0.05	7.53
41.788	25.51	38.31	0.04	7.63
41.817	25.51	38.31	0.04	7.63
41.847	25.54	38.34	0.04	7.63
41.877	25.54	38.34	-0.01	7.57
41.907	25.54	38.34	-0.01	7.57
41.936	25.50	38.30	-0.01	7.57
41.966	25.50	38.30	-0.03	7.56
41.996	25.50	38.30	-0.03	7.56
42.026	25.51	38.31	-0.03	7.56
42.055	25.51	38.31	0.06	7.65
42.085	25.51	38.31	0.06	7.65
42.115	25.50	38.30	0.06	7.65
42.145	25.50	38.30	-0.05	7.54
42.175	25.50	38.30	-0.05	7.54
42.204	25.45	38.25	-0.05	7.54
42.234	25.45	38.25	0.04	7.63
42.264	25.45	38.25	0.04	7.63
42.294	25.64	38.44	0.04	7.63
42.323	25.64	38.44	-0.01	7.57
42.353	25.64	38.44	-0.01	7.57
42.383	25.48	38.28	-0.01	7.57
42.413	25.48	38.28	-0.03	7.56
42.442	25.48	38.28	-0.03	7.56
42.472	25.48	38.28	-0.03	7.56
42.502	25.48	38.28	0.06	7.65
42.532	25.48	38.28	0.06	7.65
42.561	25.52	38.32	0.06	7.65
42.591	25.52	38.32	-0.05	7.53
42.621	25.52	38.32	-0.05	7.53
42.651	25.44	38.24	-0.05	7.53
42.680	25.44	38.24	0.04	7.63
42.710	25.44	38.24	0.04	7.63
42.740	25.63	38.43	0.04	7.63
42.770	25.63	38.43	-0.02	7.57
42.799	25.63	38.43	-0.02	7.57
42.829	25.53	38.33	-0.02	7.57
42.859	25.53	38.33	-0.03	7.55
42.889	25.53	38.33	-0.03	7.55
42.918	25.50	38.30	-0.03	7.55
42.948	25.50	38.30	0.06	7.65
42.978	25.50	38.30	0.06	7.65
43.008	25.53	38.33	0.06	7.65
43.038	25.53	38.33	-0.05	7.53
43.067	25.53	38.33	-0.05	7.53
43.097	25.44	38.24	-0.05	7.53
43.127	25.44	38.24	0.05	7.63
43.157	25.44	38.24	0.05	7.63
43.186	25.65	38.45	0.05	7.63
43.216	25.65	38.45	-0.02	7.57
43.246	25.65	38.45	-0.02	7.57
43.276	25.57	38.37	-0.02	7.57
43.305	25.57	38.37	-0.02	7.56
43.335	25.57	38.37	-0.02	7.56
43.365	25.53	38.33	-0.02	7.56
43.395	25.53	38.33	0.06	7.65
43.424	25.53	38.33	0.06	7.65
43.454	25.55	38.35	0.06	7.65
43.484	25.55	38.35	-0.05	7.53
43.514	25.55	38.35	-0.05	7.53
43.543	25.49	38.29	-0.05	7.53
43.573	25.49	38.29	0.05	7.63
43.603	25.49	38.29	0.05	7.63
43.633	25.48	38.28	0.05	7.63
43.662	25.48	38.28	-0.02	7.57
43.692	25.48	38.28	-0.02	7.57
43.722	25.51	38.32	-0.02	7.57
43.752	25.51	38.32	-0.02	7.56
43.782	25.51	38.32	-0.02	7.56
43.811	25.50	38.30	-0.02	7.56
43.841	25.50	38.30	0.06	7.65
43.871	25.50	38.30	0.06	7.65
43.901	25.49	38.29	0.06	7.65
43.930	25.49	38.29	-0.05	7.53
43.960	25.49	38.29	-0.05	7.53
43.990	25.45	38.25	-0.05	7.53
44.020	25.45	38.25	0.05	7.63
44.049	25.45	38.25	0.05	7.63
44.079	25.62	38.42	0.05	7.63
44.109	25.62	38.42	-0.02	7.57
44.139	25.62	38.42	-0.02	7.57
44.168	25.56	38.36	-0.02	7.57
44.198	25.56	38.36	-0.02	7.56
44.228	25.56	38.36	-0.02	7.56
44.258	25.52	38.32	-0.02	7.56
44.288	25.52	38.32	0.06	7.65
44.317	25.52	38.32	0.06	7.65
44.347	25.48	38.28	0.06	7.65
44.377	25.48	38.28	-0.05	7.53
44.407	25.48	38.28	-0.05	7.53
44.436	25.55	38.35	-0.05	7.53
44.466	25.55	38.35	0.05	7.63
44.496	25.55	38.35	0.05	7.63
44.526	25.35	38.15	0.05	7.63
44.555	25.35	38.15	-0.01	7.57
44.585	25.35	38.15	-0.01	7.57
44.615	25.53	38.33	-0.01	7.57
44.645	25.53	38.33	-0.02	7.56
44.674	25.53	38.33	-0.02	7.56
44.704	25.51	38.31	-0.02	7.56
44.734	25.51	38.31	0.06	7.65
44.764	25.51	38.31	0.06	7.65
44.793	25.41	38.21	0.06	7.65
44.823	25.41	38.21	-0.06	7.53
44.853	25.41	38.21	-0.06	7.53
44.883	25.50	38.30	-0.06	7.53
44.912	25.50	38.30	0.04	7.63
44.942	25.50	38.30	0.04	7.63
44.972	25.44	38.24	0.04	7.63
45.002	25.44	38.24	-0.02	7.57
45.032	25.44	38.24	-0.02	7.57
45.061	25.57	38.38	-0.02	7.57
45.091	25.57	38.38	-0.03	7.56
45.121	25.57	38.38	-0.03	7.56
45.151	25.50	38.30	-0.03	7.56
45.180	25.50	38.30	0.06	7.65
45.210	25.50	38.30	0.06	7.65
45.240	25.45	38.25	0.06	7.65
45.270	25.45	38.25	-0.05	7.53
45.299	25.45	38.25	-0.05	7.53
45.329	25.44	38.24	-0.05	7.53
45.359	25.44	38.24	0.05	7.63
45.389	25.44	38.24	0.05	7.63
45.418	25.43	38.23	0.05	7.63
45.448	25.43	38.23	-0.02	7.57
45.478	25.43	38.23	-0.02	7.57
45.508	25.55	38.35	-0.02	7.57
45.537	25.55	38.35	-0.02	7.56
45.567	25.55	38.35	-0.02	7.56
45.597	25.54	38.34	-0.02	7.56
45.627	25.54	38.34	0.06	7.65
45.656	25.54	38.34	0.06	7.65
45.686	25.35	38.15	0.06	7.65
45.716	25.35	38.15	-0.05	7.53
45.746	25.35	38.15	-0.05	7.53
45.776	25.47	38.27	-0.05	7.53
45.805	25.47	38.27	0.04	7.63
45.835	25.47	38.27	0.04	7.63
45.865	25.41	38.21	0.04	7.63
45.895	25.41	38.21	-0.02	7.57
45.924	25.41	38.21	-0.02	7.57
45.954	25.60	38.40	-0.02	7.57
45.984	25.60	38.40	-0.02	7.56
46.014	25.60	38.40	-0.02	7.56
46.043	25.59	38.39	-0.02	7.56
46.073	25.59	38.39	0.06	7.65
46.103	25.59	38.39	0.06	7.65
46.133	25.56	38.36	0.06	7.65
46.162	25.56	38.36	-0.06	7.53
46.192	25.56	38.36	-0.06	7.53
46.222	25.55	38.35	-0.06	7.53
46.252	25.55	38.35	0.04	7.63
46.282	25.55	38.35	0.04	7.63
46.311	25.54	38.34	0.04	7.63
46.341	25.54	38.34	-0.02	7.57
46.371	25.54	38.34	-0.02	7.57
46.401	25.40	38.20	-0.02	7.57
46.430	25.40	38.20	-0.02	7.57
46.460	25.40	38.20	-0.02	7.57
46.490	25.55	38.35	-0.02	7.57
46.520	25.55	38.35	0.06	7.65
46.549	25.55	38.35	0.06	7.65
46.579	25.45	38.25	0.06	7.65
46.609	25.45	38.25	-0.06	7.53
46.639	25.45	38.25	-0.06	7.53
46.668	25.45	38.25	-0.06	7.53
46.698	25.45	38.25	0.05	7.63
46.728	25.45	38.25	0.05	7.63
46.758	25.52	38.32	0.05	7.63
46.787	25.52	38.32	-0.02	7.57
46.817	25.52	38.32	-0.02	7.57
46.847	25.42	38.22	-0.02	7.57
46.877	25.42	38.22	-0.02	7.56
46.907	25.42	38.22	-0.02	7.56
46.936	25.62	38.42	-0.02	7.56
46.966	25.62	38.42	0.06	7.65
46.996	25.62	38.42	0.06	7.65
47.026	25.59	38.39	0.06	7.65
47.055	25.59	38.39	-0.05	7.53
47.085	25.59	38.39	-0.05	7.53
47.115	25.59	38.39	-0.05	7.53
47.145	25.59	38.39	0.04	7.63
47.174	25.59	38.39	0.04	7.63
47.204	25.55	38.35	0.04	7.63
47.234	25.55	38.35	-0.02	7.57
47.264	25.55	38.35	-0.02	7.57
47.293	25.40	38.20	-0.02	7.57
47.323	25.40	38.20	-0.02	7.57
47.353	25.40	38.20	-0.02	7.57
47.383	25.55	38.35	-0.02	7.57
47.412	25.55	38.35	0.06	7.65
47.442	25.55	38.35	0.06	7.65
47.472	25.56	38.37	0.06	7.65
47.502	25.56	38.37	-0.05	7.53
47.531	25.56	38.37	-0.05	7.53
47.561	25.47	38.27	-0.05	7.53
47.591	25.47	38.27	0.05	7.63
47.621	25.47	38.27	0.05	7.63
47.650	25.50	38.30	0.05	7.63
47.680	25.50	38.30	-0.02	7.57
47.710	25.50	38.30	-0.02	7.57
47.740	25.55	38.35	-0.02	7.57
47.770	25.55	38.35	-0.02	7.57
47.799	25.55	38.35	-0.02	7.57
47.829	25.53	38.33	-0.02	7.57
47.859	25.53	38.33	0.06	7.65
47.889	25.53	38.33	0.06	7.65
47.918	25.58	38.38	0.06	7.65
47.948	25.58	38.38	-0.06	7.53
47.978	25.58	38.38	-0.06	7.53
48.008	25.52	38.32	-0.06	7.53
48.037	25.52	38.32	0.04	7.63
48.067	25.52	38.32	0.04	7.63
48.097	25.58	38.38	0.04	7.63
48.127	25.58	38.38	-0.02	7.57
48.156	25.58	38.38	-0.02	7.57
48.186	25.48	38.28	-0.02	7.57
48.216	25.48	38.28	-0.02	7.57
48.246	25.48	38.28	-0.02	7.57
48.276	25.43	38.23	-0.02	7.57
48.305	25.43	38.23	0.06	7.65
48.335	25.43	38.23	0.06	7.65
48.365	25.51	38.31	0.06	7.65
48.395	25.51	38.31	-0.06	7.53
48.424	25.51	38.31	-0.06	7.53
48.454	25.45	38.25	-0.06	7.53
48.484	25.45	38.25	0.05	7.63
48.514	25.45	38.25	0.05	7.63
48.543	25.43	38.23	0.05	7.63
48.573	25.43	38.23	-0.02	7.57
48.603	25.43	38.23	-0.02	7.57
48.633	25.54	38.34	-0.02	7.57
48.662	25.54	38.34	-0.02	7.57
48.692	25.54	38.34	-0.02	7.57
48.722	25.44	38.24	-0.02	7.57
48.752	25.44	38.24	0.06	7.65
48.781	25.44	38.24	0.06	7.65
48.811	25.55	38.35	0.06	7.65
48.841	25.55	38.35	-0.06	7.53
48.871	25.55	38.35	-0.06	7.53
48.900	25.51	38.31	-0.06	7.53
48.930	25.51	38.31	0.05	7.63
48.960	25.51	38.31	0.05	7.63
48.990	25.49	38.29	0.05	7.63
49.020	25.49	38.29	-0.02	7.57
49.049	25.49	38.29	-0.02	7.57
49.079	25.46	38.27	-0.02	7.57
49.109	25.46	38.27	-0.02	7.57
49.139	25.46	38.27	-0.02	7.57
49.168	25.41	38.22	-0.02	7.57
49.198	25.41	38.22	0.06	7.65
49.228	25.41	38.22	0.06	7.65
49.258	25.47	38.27	0.06	7.65
49.287	25.47	38.27	-0.05	7.53
49.317	25.47	38.27	-0.05	7.53
49.347	25.57	38.37	-0.05	7.53
49.377	25.57	38.37	0.05	7.63
49.406	25.57	38.37	0.05	7.63
49.436	25.44	38.24	0.05	7.63
49.466	25.44	38.24	-0.02	7.56
49.496	25.44	38.24	-0.02	7.56
49.525	25.49	38.29	-0.02	7.56
49.555	25.49	38.29	-0.02	7.57
49.585	25.49	38.29	-0.02	7.57
49.615	25.57	38.38	-0.02	7.57
49.644	25.57	38.38	0.06	7.65
49.674	25.57	38.38	0.06	7.65
49.704	25.58	38.38	0.06	7.65
49.734	25.58	38.38	-0.06	7.53
49.764	25.58	38.38	-0.06	7.53
49.793	25.61	38.41	-0.06	7.53
49.823	25.61	38.41	0.05	7.63
49.853	25.61	38.41	0.05	7.63
49.883	25.46	38.26	0.05	7.63
49.912	25.46	38.26	-0.02	7.56
49.942	25.46	38.26	-0.02	7.56
49.972	25.53	38.33	-0.02	7.56
50.002	25.53	38.33	-0.02	7.57
50.031	25.53	38.33	-0.02	7.57
50.061	25.47	38.27	-0.02	7.57
50.091	25.47	38.27	0.06	7.65
50.121	25.47	38.27	0.06	7.65
50.150	25.41	38.22	0.06	7.65
50.180	25.41	38.22	-0.05	7.54
50.210	25.41	38.22	-0.05	7.54
50.240	25.49	38.29	-0.05	7.54
50.270	25.49	38.29	0.05	7.63
50.299	25.49	38.29	0.05	7.63
50.329	25.45	38.25	0.05	7.63
50.359	25.45	38.25	-0.02	7.56
50.389	25.45	38.25	-0.02	7.56
50.418	25.44	38.24	-0.02	7.56
50.448	25.44	38.24	-0.01	7.57
50.478	25.44	38.24	-0.01	7.57
50.508	25.49	38.29	-0.01	7.57
50.537	25.49	38.29	0.06	7.65
50.567	25.49	38.29	0.06	7.65
50.597	25.56	38.36	0.06	7.65
50.627	25.56	38.36	-0.05	7.53
50.656	25.56	38.36	-0.05	7.53
50.686	25.55	38.35	-0.05	7.53
50.716	25.55	38.35	0.05	7.64
50.746	25.55	38.35	0.05	7.64
50.775	25.49	38.29	0.05	7.64
50.805	25.49	38.29	-0.02	7.56
50.835	25.49	38.29	-0.02	7.56
50.865	25.51	38.32	-0.02	7.56
50.894	25.51	38.32	-0.02	7.57
50.924	25.51	38.32	-0.02	7.57
50.954	25.49	38.29	-0.02	7.57
50.984	25.49	38.29	0.06	7.65
51.014	25.49	38.29	0.06	7.65
51.043	25.28	38.08	0.06	7.65
51.073	25.28	38.08	-0.06	7.53
51.103	25.28	38.08	-0.06	7.53
51.133	25.44	38.24	-0.06	7.53
51.162	25.44	38.24	0.05	7.64
51.192	25.44	38.24	0.05	7.64
51.222	25.42	38.22	0.05	7.64
51.252	25.42	38.22	-0.02	7.56
51.281	25.42	38.22	-0.02	7.56
51.311	25.43	38.23	-0.02	7.56
51.341	25.43	38.23	-0.01	7.58
51.371	25.43	38.23	-0.01	7.58
51.400	25.34	38.14	-0.01	7.58
51.430	25.34	38.14	0.06	7.65
51.460	25.34	38.14	0.06	7.65
51.490	25.37	38.18	0.06	7.65
51.519	25.37	38.18	-0.05	7.53
51.549	25.37	38.18	-0.05	7.53
51.579	25.35	38.15	-0.05	7.53
51.609	25.35	38.15	0.05	7.63
51.638	25.35	38.15	0.05	7.63
51.668	25.41	38.21	0.05	7.63
51.698	25.41	38.21	-0.02	7.56
51.728	25.41	38.21	-0.02	7.56
51.758	25.36	38.16	-0.02	7.56
51.787	25.36	38.16	-0.01	7.58
51.817	25.36	38.16	-0.01	7.58
51.847	25.36	38.16	-0.01	7.58
51.877	25.36	38.16	0.06	7.65
51.906	25.36	38.16	0.06	7.65
51.936	25.35	38.15	0.06	7.65
51.966	25.35	38.15	-0.05	7.54
51.996	25.35	38.15	-0.05	7.54
52.025	25.34	38.14	-0.05	7.54
52.055	25.34	38.14	0.06	7.64
52.085	25.34	38.14	0.06	7.64
52.115	25.48	38.28	0.06	7.64
52.144	25.48	38.28	-0.03	7.56
52.174	25.48	38.28	-0.03	7.56
52.204	25.31	38.12	-0.03	7.56
52.234	25.31	38.12	-0.01	7.58
52.264	25.31	38.12	-0.01	7.58
52.293	25.35	38.15	-0.01	7.58
52.323	25.35	38.15	0.06	7.65
52.353	25.35	38.15	0.06	7.65
52.383	25.34	38.14	0.06	7.65
52.412	25.34	38.14	-0.05	7.53
52.442	25.34	38.14	-0.05	7.53
52.472	25.45	38.25	-0.05	7.53
52.502	25.45	38.25	0.05	7.64
52.531	25.45	38.25	0.05	7.64
52.561	25.40	38.20	0.05	7.64
52.591	25.40	38.20	-0.03	7.56
52.621	25.40	38.20	-0.03	7.56
52.650	25.40	38.20	-0.03	7.56
52.680	25.40	38.20	-0.01	7.58
52.710	25.40	38.20	-0.01	7.58
52.740	25.42	38.22	-0.01	7.58
52.769	25.42	38.22	0.06	7.65
52.799	25.42	38.22	0.06	7.65
52.829	25.34	38.14	0.06	7.65
52.859	25.34	38.14	-0.05	7.53
52.889	25.34	38.14	-0.05	7.53
52.918	25.36	38.16	-0.05	7.53
52.948	25.36	38.16	0.05	7.64
52.978	25.36	38.16	0.05	7.64
53.008	25.44	38.24	0.05	7.64
53.037	25.44	38.24	-0.03	7.56
53.067	25.44	38.24	-0.03	7.56
53.097	25.39	38.19	-0.03	7.56
53.127	25.39	38.19	-0.01	7.58
53.156	25.39	38.19	-0.01	7.58
53.186	25.34	38.14	-0.01	7.58
53.216	25.34	38.14	0.06	7.65
53.246	25.34	38.14	0.06	7.65
53.275	25.41	38.21	0.06	7.65
53.305	25.41	38.21	-0.05	7.53
53.335	25.41	38.21	-0.05	7.53
53.365	25.25	38.05	-0.05	7.53
53.394	25.25	38.05	0.05	7.64
53.424	25.25	38.05	0.05	7.64
53.454	25.46	38.26	0.05	7.64
53.484	25.46	38.26	-0.03	7.56
53.513	25.46	38.26	-0.03	7.56
53.543	25.38	38.18	-0.03	7.56
53.573	25.38	38.18	-0.00	7.58
53.603	25.38	38.18	-0.00	7.58
53.633	25.39	38.19	-0.00	7.58
53.662	25.39	38.19	0.06	7.65
53.692	25.39	38.19	0.06	7.65
53.722	25.38	38.18	0.06	7.65
53.752	25.38	38.18	-0.05	7.53
53.781	25.38	38.18	-0.05	7.53
53.811	25.37	38.17	-0.05	7.53
53.841	25.37	38.17	0.05	7.64
53.871	25.37	38.17	0.05	7.64
53.900	25.42	38.22	0.05	7.64
53.930	25.42	38.22	-0.02	7.56
53.960	25.42	38.22	-0.02	7.56
53.990	25.45	38.25	-0.02	7.56
54.019	25.45	38.25	0.00	7.59
54.049	25.45	38.25	0.00	7.59
54.079	25.35	38.15	0.00	7.59
54.109	25.35	38.15	0.06	7.64
54.138	25.35	38.15	0.06	7.64
54.168	25.40	38.20	0.06	7.64
54.198	25.40	38.20	-0.05	7.53
54.228	25.40	38.20	-0.05	7.53
54.257	25.31	38.11	-0.05	7.53
54.287	25.31	38.11	0.05	7.64
54.317	25.31	38.11	0.05	7.64
54.347	25.74	38.54	0.05	7.64
54.376	25.74	38.54	-0.03	7.56
54.406	25.74	38.54	-0.03	7.56
54.436	25.69	38.49	-0.03	7.56
54.466	25.69	38.49	0.00	7.59
54.495	25.69	38.49	0.00	7.59
54.525	25.56	38.36	0.00	7.59
54.555	25.56	38.36	0.06	7.64
54.585	25.56	38.36	0.06	7.64
54.615	25.61	38.41	0.06	7.64
54.644	25.61	38.41	-0.05	7.53
54.674	25.61	38.41	-0.05	7.53
54.704	25.61	38.41	-0.05	7.53
54.734	25.61	38.41	0.05	7.64
54.763	25.61	38.41	0.05	7.64
54.793	25.62	38.43	0.05	7.64
54.823	25.62	38.43	-0.03	7.56
54.852	25.62	38.43	-0.03	7.56
54.882	25.74	38.54	-0.03	7.56
54.912	25.74	38.54	0.01	7.59
54.942	25.74	38.54	0.01	7.59
54.971	25.63	38.43	0.01	7.59
55.001	25.63	38.43	0.06	7.64
55.031	25.63	38.43	0.06	7.64
55.061	25.74	38.54	0.06	7.64
55.090	25.74	38.54	-0.05	7.53
55.120	25.74	38.54	-0.05	7.53
55.150	25.79	38.59	-0.05	7.53
55.180	25.79	38.59	0.06	7.64
55.210	25.79	38.59	0.06	7.64
55.239	25.78	38.58	0.06	7.64
55.269	25.78	38.58	-0.03	7.55
55.299	25.78	38.58	-0.03	7.55
55.329	25.83	38.63	-0.03	7.55
55.358	25.83	38.63	0.00	7.59
55.388	25.83	38.63	0.00	7.59
55.418	25.86	38.67	0.00	7.59
55.448	25.86	38.67	0.06	7.64
55.477	25.86	38.67	0.06	7.64
55.507	25.79	38.59	0.06	7.64
55.537	25.79	38.59	-0.06	7.53
55.567	25.79	38.59	-0.06	7.53
55.596	25.84	38.64	-0.06	7.53
55.626	25.84	38.64	0.05	7.64
55.656	25.84	38.64	0.05	7.64
55.686	25.90	38.70	0.05	7.64
55.715	25.90	38.70	-0.03	7.56
55.745	25.90	38.70	-0.03	7.56
55.775	25.50	38.30	-0.03	7.56
55.805	25.50	38.30	0.00	7.59
55.834	25.50	38.30	0.00	7.59
55.864	25.28	38.08	0.00	7.59
55.894	25.28	38.08	0.06	7.64
55.924	25.28	38.08	0.06	7.64
55.954	26.35	39.15	0.06	7.64
55.983	26.35	39.15	-0.05	7.53
56.013	26.35	39.15	-0.05	7.53
56.043	26.42	39.22	-0.05	7.53
56.073	26.42	39.22	0.05	7.64
56.102	26.42	39.22	0.05	7.64
56.132	25.51	38.31	0.05	7.64
56.162	25.51	38.31	-0.03	7.55
56.192	25.51	38.31	-0.03	7.55
56.221	25.48	38.28	-0.03	7.55
56.251	25.48	38.28	0.01	7.59
56.281	25.48	38.28	0.01	7.59
56.311	25.48	38.28	0.01	7.59
56.340	25.48	38.28	0.06	7.64
56.370	25.48	38.28	0.06	7.64
56.400	25.98	38.78	0.06	7.64
56.430	25.98	38.78	-0.05	7.53
56.459	25.98	38.78	-0.05	7.53
56.489	25.94	38.74	-0.05	7.53
56.519	25.94	38.74	0.05	7.64
56.549	25.94	38.74	0.05	7.64
56.579	25.96	38.76	0.05	7.64
56.608	25.96	38.76	-0.03	7.55
56.638	25.96	38.76	-0.03	7.55
56.668	25.72	38.52	-0.03	7.55
56.698	25.72	38.52	0.00	7.59
56.727	25.72	38.52	0.00	7.59
56.757	25.63	38.43	0.00	7.59
56.787	25.63	38.43	0.06	7.64
56.817	25.63	38.43	0.06	7.64
56.846	25.54	38.34	0.06	7.64
56.876	25.54	38.34	-0.05	7.53
56.906	25.54	38.34	-0.05	7.53
56.936	26.09	38.89	-0.05	7.53
56.965	26.09	38.89	0.06	7.64
56.995	26.09	38.89	0.06	7.64
57.025	25.66	38.46	0.06	7.64
57.055	25.66	38.46	-0.03	7.55
57.085	25.66	38.46	-0.03	7.55
57.114	25.73	38.53	-0.03	7.55
57.144	25.73	38.53	0.01	7.59
57.174	25.73	38.53	0.01	7.59
57.204	26.07	38.87	0.01	7.59
57.233	26.07	38.87	0.05	7.64
57.263	26.07	38.87	0.05	7.64
57.293	25.76	38.56	0.05	7.64
57.323	25.76	38.56	-0.05	7.53
57.352	25.76	38.56	-0.05	7.53
57.382	26.04	38.84	-0.05	7.53
57.412	26.04	38.84	0.06	7.64
57.442	26.04	38.84	0.06	7.64
57.471	26.15	38.95	0.06	7.64
57.501	26.15	38.95	-0.03	7.56
57.531	26.15	38.95	-0.03	7.56
57.561	26.36	39.17	-0.03	7.56
57.590	26.36	39.17	0.01	7.60
57.620	26.36	39.17	0.01	7.60
57.650	26.41	39.21	0.01	7.60
57.680	26.41	39.21	0.05	7.64
57.709	26.41	39.21	0.05	7.64
57.739	26.33	39.13	0.05	7.64
57.769	26.33	39.13	-0.05	7.53
57.799	26.33	39.13	-0.05	7.53
57.829	26.41	39.21	-0.05	7.53
57.858	26.41	39.21	0.06	7.65
57.888	26.41	39.21	0.06	7.65
57.918	26.52	39.32	0.06	7.65
57.948	26.52	39.32	-0.03	7.55
57.977	26.52	39.32	-0.03	7.55
58.007	26.93	39.73	-0.03	7.55
58.037	26.93	39.73	0.01	7.59
58.067	26.93	39.73	0.01	7.59
58.096	26.13	38.93	0.01	7.59
58.126	26.13	38.93	0.05	7.64
58.156	26.13	38.93	0.05	7.64
58.186	26.04	38.84	0.05	7.64
58.215	26.04	38.84	-0.06	7.53
58.245	26.04	38.84	-0.06	7.53
58.275	25.66	38.46	-0.06	7.53
58.305	25.66	38.46	0.06	7.64
58.335	25.66	38.46	0.06	7.64
58.364	25.72	38.52	0.06	7.64
58.394	25.72	38.52	-0.03	7.55
58.424	25.72	38.52	-0.03	7.55
58.454	25.65	38.45	-0.03	7.55
58.483	25.65	38.45	0.01	7.60
58.513	25.65	38.45	0.01	7.60
58.543	25.73	38.53	0.01	7.60
58.573	25.73	38.53	0.05	7.64
58.602	25.73	38.53	0.05	7.64
58.632	25.79	38.59	0.05	7.64
58.662	25.79	38.59	-0.06	7.53
58.692	25.79	38.59	-0.06	7.53
58.721	25.49	38.29	-0.06	7.53
58.751	25.49	38.29	0.06	7.64
58.781	25.49	38.29	0.06	7.64
58.811	25.80	38.60	0.06	7.64
58.840	25.80	38.60	-0.03	7.56
58.870	25.80	38.60	-0.03	7.56
58.900	25.74	38.54	-0.03	7.56
58.930	25.74	38.54	0.01	7.60
58.959	25.74	38.54	0.01	7.60
58.989	25.76	38.56	0.01	7.60
59.019	25.76	38.56	0.05	7.64
59.049	25.76	38.56	0.05	7.64
59.079	25.81	38.61	0.05	7.64
59.108	25.81	38.61	-0.05	7.53
59.138	25.81	38.61	-0.05	7.53
59.168	25.92	38.72	-0.05	7.53
59.198	25.92	38.72	0.06	7.64
59.227	25.92	38.72	0.06	7.64
59.257	25.82	38.62	0.06	7.64
59.287	25.82	38.62	-0.04	7.55
59.317	25.82	38.62	-0.04	7.55
59.346	25.79	38.59	-0.04	7.55
59.376	25.79	38.59	0.01	7.60
59.406	25.79	38.59	0.01	7.60
59.436	25.80	38.60	0.01	7.60
59.465	25.80	38.60	0.05	7.64
59.495	25.80	38.60	0.05	7.64
59.525	25.87	38.67	0.05	7.64
59.555	25.87	38.67	-0.05	7.53
59.584	25.87	38.67	-0.05	7.53
59.614	25.80	38.60	-0.05	7.53
59.644	25.80	38.60	0.06	7.64
59.674	25.80	38.60	0.06	7.64
59.703	25.73	38.53	0.06	7.64
59.733	25.73	38.53	-0.03	7.56
59.763	25.73	38.53	-0.03	7.56
59.793	25.77	38.57	-0.03	7.56
59.823	25.77	38.57	0.01	7.60
59.852	25.77	38.57	0.01	7.60
59.882	25.75	38.55	0.01	7.60
59.912	25.75	38.55	0.05	7.64
59.942	25.75	38.55	0.05	7.64
59.971	25.79	38.59	0.05	7.64
60.001	25.79	38.59	-0.05	7.53
60.031	25.79	38.59	-0.05	7.53
60.061	25.68	38.48	-0.05	7.53
60.090	25.68	38.48	0.06	7.65
60.120	25.68	38.48	0.06	7.65
60.150	25.74	38.54	0.06	7.65
60.180	25.74	38.54	-0.03	7.55
60.209	25.74	38.54	-0.03	7.55
60.239	25.60	38.40	-0.03	7.55
60.269	25.60	38.40	0.01	7.60
60.299	25.60	38.40	0.01	7.60
60.328	25.62	38.42	0.01	7.60
60.358	25.62	38.42	0.06	7.64
60.388	25.62	38.42	0.06	7.64
60.418	25.72	38.52	0.06	7.64
60.448	25.72	38.52	-0.05	7.53
60.477	25.72	38.52	-0.05	7.53
60.507	25.64	38.44	-0.05	7.53
60.537	25.64	38.44	0.06	7.65
60.567	25.64	38.44	0.06	7.65
60.596	25.58	38.38	0.06	7.65
60.626	25.58	38.38	-0.03	7.55
60.656	25.58	38.38	-0.03	7.55
60.686	25.62	38.42	-0.03	7.55
60.715	25.62	38.42	0.01	7.59
60.745	25.62	38.42	0.01	7.59
60.775	25.59	38.39	0.01	7.59
60.805	25.59	38.39	0.06	7.64
60.834	25.59	38.39	0.06	7.64
60.864	25.89	38.69	0.06	7.64
60.894	25.89	38.69	-0.05	7.53
60.924	25.89	38.69	-0.05	7.53
60.953	25.62	38.42	-0.05	7.53
60.983	25.62	38.42	0.06	7.64
61.013	25.62	38.42	0.06	7.64
61.043	25.58	38.38	0.06	7.64
61.072	25.58	38.38	-0.03	7.56
61.102	25.58	38.38	-0.03	7.56
61.132	25.62	38.42	-0.03	7.56
61.162	25.62	38.42	0.01	7.59
61.192	25.62	38.42	0.01	7.59
61.221	25.57	38.37	0.01	7.59
61.251	25.57	38.37	0.05	7.64
61.281	25.57	38.37	0.05	7.64
61.311	25.54	38.34	0.05	7.64
61.340	25.54	38.34	-0.05	7.54
61.370	25.54	38.34	-0.05	7.54
61.400	25.47	38.27	-0.05	7.54
61.430	25.47	38.27	0.06	7.64
61.459	25.47	38.27	0.06	7.64
61.489	25.53	38.33	0.06	7.64
61.519	25.53	38.33	-0.03	7.55
61.549	25.53	38.33	-0.03	7.55
61.578	25.53	38.33	-0.03	7.55
61.608	25.53	38.33	0.01	7.59
61.638	25.53	38.33	0.01	7.59
61.668	25.49	38.29	0.01	7.59
61.697	25.49	38.29	0.06	7.64
61.727	25.49	38.29	0.06	7.64
61.757	25.50	38.30	0.06	7.64
61.787	25.50	38.30	-0.05	7.53
61.817	25.50	38.30	-0.05	7.53
61.846	25.53	38.33	-0.05	7.53
61.876	25.53	38.33	0.06	7.64
61.906	25.53	38.33	0.06	7.64
61.936	25.46	38.27	0.06	7.64
61.965	25.46	38.27	-0.03	7.56
61.995	25.46	38.27	-0.03	7.56
62.025	25.57	38.37	-0.03	7.56
62.055	25.57	38.37	0.00	7.59
62.084	25.57	38.37	0.00	7.59
62.114	25.54	38.34	0.00	7.59
62.144	25.54	38.34	0.06	7.64
62.174	25.54	38.34	0.06	7.64
62.203	25.47	38.27	0.06	7.64
62.233	25.47	38.27	-0.05	7.54
62.263	25.47	38.27	-0.05	7.54
62.293	25.47	38.27	-0.05	7.54
62.322	25.47	38.27	0.05	7.64
62.352	25.47	38.27	0.05	7.64
62.382	25.44	38.24	0.05	7.64
62.412	25.44	38.24	-0.02	7.56
62.442	25.44	38.24	-0.02	7.56
62.471	25.50	38.30	-0.02	7.56
62.501	25.50	38.30	0.00	7.59
62.531	25.50	38.30	0.00	7.59
62.560	25.50	38.30	0.00	7.59
62.590	25.50	38.30	0.06	7.64
62.620	25.50	38.30	0.06	7.64
62.650	25.40	38.20	0.06	7.64
62.679	25.40	38.20	-0.05	7.53
62.709	25.40	38.20	-0.05	7.53
62.739	25.59	38.39	-0.05	7.53
62.769	25.59	38.39	0.06	7.64
62.799	25.59	38.39	0.06	7.64
62.828	25.48	38.28	0.06	7.64
62.858	25.48	38.28	-0.03	7.56
62.888	25.48	38.28	-0.03	7.56
62.918	25.45	38.25	-0.03	7.56
62.947	25.45	38.25	-0.00	7.58
62.977	25.45	38.25	-0.00	7.58
63.007	25.47	38.27	-0.00	7.58
63.037	25.47	38.27	0.06	7.65
63.066	25.47	38.27	0.06	7.65
63.096	25.42	38.22	0.06	7.65
63.126	25.42	38.22	-0.05	7.53
63.156	25.42	38.22	-0.05	7.53
63.185	25.57	38.37	-0.05	7.53
63.215	25.57	38.37	0.05	7.64
63.245	25.57	38.37	0.05	7.64
63.275	25.51	38.31	0.05	7.64
63.304	25.51	38.31	-0.03	7.56
63.334	25.51	38.31	-0.03	7.56
63.364	25.67	38.47	-0.03	7.56
63.394	25.67	38.47	-0.00	7.58
63.424	25.67	38.47	-0.00	7.58
63.453	25.66	38.46	-0.00	7.58
63.483	25.66	38.46	0.06	7.65
63.513	25.66	38.46	0.06	7.65
63.543	25.74	38.54	0.06	7.65
63.572	25.74	38.54	-0.05	7.53
63.602	25.74	38.54	-0.05	7.53
63.632	25.68	38.48	-0.05	7.53
63.662	25.68	38.48	0.05	7.63
63.691	25.68	38.48	0.05	7.63
63.721	25.87	38.67	0.05	7.63
63.751	25.87	38.67	-0.03	7.56
63.781	25.87	38.67	-0.03	7.56
63.810	25.76	38.56	-0.03	7.56
63.840	25.76	38.56	-0.01	7.58
63.870	25.76	38.56	-0.01	7.58
63.900	25.85	38.65	-0.01	7.58
63.929	25.85	38.65	0.06	7.65
63.959	25.85	38.65	0.06	7.65
63.989	25.79	38.59	0.06	7.65
64.019	25.79	38.59	-0.06	7.53
64.049	25.79	38.59	-0.06	7.53
64.078	25.73	38.53	-0.06	7.53
64.108	25.73	38.53	0.05	7.64
64.138	25.73	38.53	0.05	7.64
64.168	25.89	38.69	0.05	7.64
64.197	25.89	38.69	-0.03	7.56
64.227	25.89	38.69	-0.03	7.56
64.257	25.83	38.63	-0.03	7.56
64.287	25.83	38.63	-0.01	7.58
64.316	25.83	38.63	-0.01	7.58
64.346	25.76	38.56	-0.01	7.58
64.376	25.76	38.56	0.06	7.65
64.406	25.76	38.56	0.06	7.65
64.435	25.74	38.54	0.06	7.65
64.465	25.74	38.54	-0.06	7.53
64.495	25.74	38.54	-0.06	7.53
64.525	25.77	38.57	-0.06	7.53
64.554	25.77	38.57	0.05	7.64
64.584	25.77	38.57	0.05	7.64
64.614	25.90	38.70	0.05	7.64
64.644	25.90	38.70	-0.02	7.56
64.674	25.90	38.70	-0.02	7.56
64.703	25.87	38.67	-0.02	7.56
64.733	25.87	38.67	-0.01	7.57
64.763	25.87	38.67	-0.01	7.57
64.793	25.85	38.65	-0.01	7.57
64.822	25.85	38.65	0.06	7.65
64.852	25.85	38.65	0.06	7.65
64.882	25.86	38.66	0.06	7.65
64.912	25.86	38.66	-0.06	7.53
64.941	25.86	38.66	-0.06	7.53
64.971	25.82	38.62	-0.06	7.53
65.001	25.82	38.62	0.05	7.63
65.031	25.82	38.62	0.05	7.63
65.060	25.88	38.68	0.05	7.63
65.090	25.88	38.68	-0.02	7.57
65.120	25.88	38.68	-0.02	7.57
65.150	25.94	38.74	-0.02	7.57
65.179	25.94	38.74	-0.02	7.57
65.209	25.94	38.74	-0.02	7.57
65.239	25.82	38.62	-0.02	7.57
65.269	25.82	38.62	0.06	7.65
65.299	25.82	38.62	0.06	7.65
65.328	25.95	38.75	0.06	7.65
65.358	25.95	38.75	-0.05	7.53
65.388	25.95	38.75	-0.05	7.53
65.418	25.90	38.70	-0.05	7.53
65.447	25.90	38.70	0.05	7.63
65.477	25.90	38.70	0.05	7.63
65.507	25.99	38.79	0.05	7.63
65.537	25.99	38.79	-0.02	7.57
65.566	25.99	38.79	-0.02	7.57
65.596	25.93	38.73	-0.02	7.57
65.626	25.93	38.73	-0.02	7.56
65.656	25.93	38.73	-0.02	7.56
65.685	25.88	38.68	-0.02	7.56
65.715	25.88	38.68	0.06	7.65
65.745	25.88	38.68	0.06	7.65
65.775	26.00	38.80	0.06	7.65
65.804	26.00	38.80	-0.06	7.53
65.834	26.00	38.80	-0.06	7.53
65.864	25.91	38.71	-0.06	7.53
65.894	25.91	38.71	0.05	7.63
65.924	25.91	38.71	0.05	7.63
65.953	25.91	38.71	0.05	7.63
65.983	25.91	38.71	-0.01	7.57
66.013	25.91	38.71	-0.01	7.57
66.043	25.94	38.74	-0.01	7.57
66.072	25.94	38.74	-0.02	7.56
66.102	25.94	38.74	-0.02	7.56
66.132	25.78	38.58	-0.02	7.56
66.162	25.78	38.58	0.06	7.65
66.191	25.78	38.58	0.06	7.65
66.221	25.88	38.68	0.06	7.65
66.251	25.88	38.68	-0.05	7.53
66.281	25.88	38.68	-0.05	7.53
66.310	25.85	38.65	-0.05	7.53
66.340	25.85	38.65	0.04	7.63
66.370	25.85	38.65	0.04	7.63
66.400	25.77	38.57	0.04	7.63
66.429	25.77	38.57	-0.01	7.58
66.459	25.77	38.57	-0.01	7.58
66.489	25.94	38.74	-0.01	7.58
66.519	25.94	38.74	-0.03	7.56
66.548	25.94	38.74	-0.03	7.56
66.578	25.94	38.74	-0.03	7.56
66.608	25.94	38.74	0.06	7.65
66.638	25.94	38.74	0.06	7.65
66.667	25.86	38.66	0.06	7.65
66.697	25.86	38.66	-0.05	7.54
66.727	25.86	38.66	-0.05	7.54
66.757	25.87	38.67	-0.05	7.54
66.787	25.87	38.67	0.04	7.63
66.816	25.87	38.67	0.04	7.63
66.846	25.86	38.66	0.04	7.63
66.876	25.86	38.66	-0.01	7.57
66.906	25.86	38.66	-0.01	7.57
66.935	26.01	38.82	-0.01	7.57
66.965	26.01	38.82	-0.04	7.55
66.995	26.01	38.82	-0.04	7.55
67.025	25.89	38.69	-0.04	7.55
67.054	25.89	38.69	0.06	7.65
67.084	25.89	38.69	0.06	7.65
67.114	25.85	38.65	0.06	7.65
67.144	25.85	38.65	-0.05	7.53
67.173	25.85	38.65	-0.05	7.53
67.203	25.89	38.69	-0.05	7.53
67.233	25.89	38.69	0.04	7.63
67.263	25.89	38.69	0.04	7.63
67.292	25.69	38.49	0.04	7.63
67.322	25.69	38.49	-0.01	7.58
67.352	25.69	38.49	-0.01	7.58
67.382	25.78	38.58	-0.01	7.58
67.411	25.78	38.58	-0.04	7.54
67.441	25.78	38.58	-0.04	7.54
67.471	25.66	38.47	-0.04	7.54
67.501	25.66	38.47	0.06	7.65
67.531	25.66	38.47	0.06	7.65
67.560	25.66	38.46	0.06	7.65
67.590	25.66	38.46	-0.05	7.54
67.620	25.66	38.46	-0.05	7.54
67.650	25.66	38.46	-0.05	7.54
67.679	25.66	38.46	0.04	7.63
67.709	25.66	38.46	0.04	7.63
67.739	25.59	38.39	0.04	7.63
67.769	25.59	38.39	0.00	7.59
67.798	25.59	38.39	0.00	7.59
67.828	25.68	38.48	0.00	7.59
67.858	25.68	38.48	-0.05	7.54
67.888	25.68	38.48	-0.05	7.54
67.917	25.75	38.55	-0.05	7.54
67.947	25.75	38.55	0.06	7.65
67.977	25.75	38.55	0.06	7.65
68.007	25.72	38.52	0.06	7.65
68.036	25.72	38.52	-0.05	7.54
68.066	25.72	38.52	-0.05	7.54
68.096	25.62	38.43	-0.05	7.54
68.126	25.62	38.43	0.04	7.62
68.155	25.62	38.43	0.04	7.62
68.185	25.78	38.58	0.04	7.62
68.215	25.78	38.58	0.01	7.59
68.245	25.78	38.58	0.01	7.59
68.274	25.70	38.50	0.01	7.59
68.304	25.70	38.50	-0.05	7.54
68.334	25.70	38.50	-0.05	7.54
68.364	25.86	38.67	-0.05	7.54
68.393	25.86	38.67	0.06	7.65
68.423	25.86	38.67	0.06	7.65
68.453	25.89	38.69	0.06	7.65
68.483	25.89	38.69	-0.05	7.54
68.512	25.89	38.69	-0.05	7.54
68.542	25.86	38.67	-0.05	7.54
68.572	25.86	38.67	0.04	7.62
68.602	25.86	38.67	0.04	7.62
68.631	25.89	38.69	0.04	7.62
68.661	25.89	38.69	0.01	7.60
68.691	25.89	38.69	0.01	7.60
68.721	25.97	38.77	0.01	7.60
68.750	25.97	38.77	-0.05	7.53
68.780	25.97	38.77	-0.05	7.53
68.810	26.02	38.82	-0.05	7.53
68.840	26.02	38.82	0.06	7.65
68.869	26.02	38.82	0.06	7.65
68.899	25.86	38.66	0.06	7.65
68.929	25.86	38.66	-0.04	7.54
68.959	25.86	38.66	-0.04	7.54
68.989	25.81	38.62	-0.04	7.54
69.018	25.81	38.62	0.03	7.62
69.048	25.81	38.62	0.03	7.62
69.078	25.93	38.73	0.03	7.62
69.108	25.93	38.73	0.02	7.60
69.137	25.93	38.73	0.02	7.60
69.167	25.71	38.51	0.02	7.60
69.197	25.71	38.51	-0.05	7.53
69.227	25.71	38.51	-0.05	7.53
69.256	25.97	38.77	-0.05	7.53
69.286	25.97	38.77	0.06	7.65
69.316	25.97	38.77	0.06	7.65
69.346	25.89	38.69	0.06	7.65
69.375	25.89	38.69	-0.04	7.54
69.405	25.89	38.69	-0.04	7.54
69.435	25.74	38.54	-0.04	7.54
69.465	25.74	38.54	0.03	7.61
69.494	25.74	38.54	0.03	7.61
69.524	25.79	38.59	0.03	7.61
69.554	25.79	38.59	0.03	7.62
69.584	25.79	38.59	0.03	7.62
69.613	25.73	38.53	0.03	7.62
69.643	25.73	38.53	-0.05	7.53
69.673	25.73	38.53	-0.05	7.53
69.703	25.77	38.58	-0.05	7.53
69.733	25.77	38.58	0.06	7.65
69.762	25.77	38.58	0.06	7.65
69.792	25.77	38.57	0.06	7.65
69.822	25.77	38.57	-0.03	7.55
69.852	25.77	38.57	-0.03	7.55
69.881	25.81	38.61	-0.03	7.55
69.911	25.81	38.61	0.03	7.61
69.941	25.81	38.61	0.03	7.61
69.971	25.79	38.59	0.03	7.61
70.000	25.79	38.59	0.04	7.62
70.030	25.79	38.59	0.04	7.62
70.060	25.75	38.55	0.04	7.62
70.090	25.75	38.55	-0.05	7.53
70.119	25.75	38.55	-0.05	7.53
70.149	25.75	38.55	-0.05	7.53
70.179	25.75	38.55	0.06	7.65
70.209	25.75	38.55	0.06	7.65
70.238	25.85	38.65	0.06	7.65
70.268	25.85	38.65	-0.03	7.55
70.298	25.85	38.65	-0.03	7.55
70.328	25.85	38.65	-0.03	7.55
70.357	25.85	38.65	0.02	7.61
70.387	25.85	38.65	0.02	7.61
70.417	25.87	38.67	0.02	7.61
70.447	25.87	38.67	0.04	7.63
70.476	25.87	38.67	0.04	7.63
70.506	25.79	38.59	0.04	7.63
70.536	25.79	38.59	-0.05	7.53
70.566	25.79	38.59	-0.05	7.53
70.596	25.70	38.50	-0.05	7.53
70.625	25.70	38.50	0.06	7.65
70.655	25.70	38.50	0.06	7.65
70.685	25.84	38.64	0.06	7.65
70.715	25.84	38.64	-0.03	7.56
70.744	25.84	38.64	-0.03	7.56
70.774	25.77	38.57	-0.03	7.56
70.804	25.77	38.57	0.01	7.60
70.834	25.77	38.57	0.01	7.60
70.863	25.74	38.54	0.01	7.60
70.893	25.74	38.54	0.06	7.64
70.923	25.74	38.54	0.06	7.64
70.953	25.83	38.63	0.06	7.64
70.982	25.83	38.63	-0.06	7.53
71.012	25.83	38.63	-0.06	7.53
71.042	25.67	38.47	-0.06	7.53
71.072	25.67	38.47	0.06	7.65
71.101	25.67	38.47	0.06	7.65
71.131	25.95	38.75	0.06	7.65
71.161	25.95	38.75	-0.03	7.55
71.191	25.95	38.75	-0.03	7.55
71.221	25.83	38.63	-0.03	7.55
71.250	25.83	38.63	0.00	7.59
71.280	25.83	38.63	0.00	7.59
71.310	25.83	38.63	0.00	7.59
71.340	25.83	38.63	0.06	7.64
71.369	25.83	38.63	0.06	7.64
71.399	25.80	38.60	0.06	7.64
71.429	25.80	38.60	-0.05	7.53
71.459	25.80	38.60	-0.05	7.53
71.488	25.84	38.64	-0.05	7.53
71.518	25.84	38.64	0.05	7.64
71.548	25.84	38.64	0.05	7.64
71.578	25.85	38.65	0.05	7.64
71.607	25.85	38.65	-0.03	7.56
71.637	25.85	38.65	-0.03	7.56
71.667	25.83	38.63	-0.03	7.56
71.697	25.83	38.63	0.00	7.59
71.726	25.83	38.63	0.00	7.59
71.756	25.77	38.57	0.00	7.59
71.786	25.77	38.57	0.06	7.65
71.816	25.77	38.57	0.06	7.65
71.845	25.81	38.61	0.06	7.65
71.875	25.81	38.61	-0.06	7.53
71.905	25.81	38.61	-0.06	7.53
71.935	25.76	38.56	-0.06	7.53
71.964	25.76	38.56	0.05	7.64
71.994	25.76	38.56	0.05	7.64
72.024	25.78	38.58	0.05	7.64
72.054	25.78	38.58	-0.02	7.56
72.083	25.78	38.58	-0.02	7.56
72.113	25.91	38.71	-0.02	7.56
72.143	25.91	38.71	-0.01	7.58
72.173	25.91	38.71	-0.01	7.58
72.203	25.85	38.65	-0.01	7.58
72.232	25.85	38.65	0.06	7.65
72.262	25.85	38.65	0.06	7.65
72.292	25.85	38.65	0.06	7.65
72.322	25.85	38.65	-0.06	7.53
72.351	25.85	38.65	-0.06	7.53
72.381	25.90	38.70	-0.06	7.53
72.411	25.90	38.70	0.06	7.64
72.441	25.90	38.70	0.06	7.64
72.470	25.82	38.62	0.06	7.64
72.500	25.82	38.62	-0.02	7.56
72.530	25.82	38.62	-0.02	7.56
72.560	25.79	38.59	-0.02	7.56
72.589	25.79	38.59	-0.02	7.57
72.619	25.79	38.59	-0.02	7.57
72.649	25.73	38.53	-0.02	7.57
72.679	25.73	38.53	0.06	7.65
72.708	25.73	38.53	0.06	7.65
72.738	25.60	38.40	0.06	7.65
72.768	25.60	38.40	-0.05	7.53
72.798	25.60	38.40	-0.05	7.53
72.827	25.65	38.45	-0.05	7.53
72.857	25.65	38.45	0.05	7.63
72.887	25.65	38.45	0.05	7.63
72.917	25.63	38.43	0.05	7.63
72.946	25.63	38.43	-0.02	7.57
72.976	25.63	38.43	-0.02	7.57
73.006	25.75	38.55	-0.02	7.57
73.036	25.75	38.55	-0.03	7.56
73.066	25.75	38.55	-0.03	7.56
73.095	25.77	38.57	-0.03	7.56
73.125	25.77	38.57	0.06	7.65
73.155	25.77	38.57	0.06	7.65
73.185	25.75	38.55	0.06	7.65
73.214	25.75	38.55	-0.05	7.53
73.244	25.75	38.55	-0.05	7.53
73.274	25.76	38.56	-0.05	7.53
73.304	25.76	38.56	0.04	7.63
73.333	25.76	38.56	0.04	7.63
73.363	25.77	38.57	0.04	7.63
73.393	25.77	38.57	-0.01	7.57
73.423	25.77	38.57	-0.01	7.57
73.452	25.76	38.56	-0.01	7.57
73.482	25.76	38.56	-0.03	7.55
73.512	25.76	38.56	-0.03	7.55
73.542	25.73	38.53	-0.03	7.55
73.571	25.73	38.53	0.06	7.65
73.601	25.73	38.53	0.06	7.65
73.631	25.72	38.52	0.06	7.65
73.661	25.72	38.52	-0.05	7.54
73.690	25.72	38.52	-0.05	7.54
73.720	25.85	38.65	-0.05	7.54
73.750	25.85	38.65	0.04	7.62
73.780	25.85	38.65	0.04	7.62
73.809	25.80	38.60	0.04	7.62
73.839	25.80	38.60	-0.01	7.58
73.869	25.80	38.60	-0.01	7.58
73.899	25.81	38.61	-0.01	7.58
73.929	25.81	38.61	-0.04	7.55
73.958	25.81	38.61	-0.04	7.55
73.988	25.81	38.62	-0.04	7.55
74.018	25.81	38.62	0.06	7.65
74.048	25.81	38.62	0.06	7.65
74.077	25.81	38.61	0.06	7.65
74.107	25.81	38.61	-0.05	7.53
74.137	25.81	38.61	-0.05	7.53
74.167	25.82	38.62	-0.05	7.53
74.196	25.82	38.62	0.04	7.62
74.226	25.82	38.62	0.04	7.62
74.256	25.84	38.64	0.04	7.62
74.286	25.84	38.64	0.00	7.59
74.315	25.84	38.64	0.00	7.59
74.345	25.74	38.54	0.00	7.59
74.375	25.74	38.54	-0.05	7.54
74.405	25.74	38.54	-0.05	7.54
74.434	25.64	38.44	-0.05	7.54
74.464	25.64	38.44	0.06	7.65
74.494	25.64	38.44	0.06	7.65
74.524	25.64	38.44	0.06	7.65
74.553	25.64	38.44	-0.05	7.54
74.583	25.64	38.44	-0.05	7.54
74.613	25.58	38.38	-0.05	7.54
74.643	25.58	38.38	0.04	7.62
74.672	25.58	38.38	0.04	7.62
74.702	25.71	38.52	0.04	7.62
74.732	25.71	38.52	0.01	7.59
74.762	25.71	38.52	0.01	7.59
74.791	25.64	38.44	0.01	7.59
74.821	25.64	38.44	-0.05	7.53
74.851	25.64	38.44	-0.05	7.53
74.881	25.62	38.42	-0.05	7.53
74.911	25.62	38.42	0.06	7.65
74.940	25.62	38.42	0.06	7.65
74.970	25.51	38.31	0.06	7.65
75.000	25.51	38.31	-0.04	7.54
75.030	25.51	38.31	-0.04	7.54
75.059	25.57	38.38	-0.04	7.54
75.089	25.57	38.38	0.03	7.62
75.119	25.57	38.38	0.03	7.62
75.149	25.63	38.43	0.03	7.62
75.178	25.63	38.43	0.02	7.61
75.208	25.63	38.43	0.02	7.61
75.238	25.56	38.37	0.02	7.61
75.268	25.56	38.37	-0.06	7.53
75.297	25.56	38.37	-0.06	7.53
75.327	25.62	38.42	-0.06	7.53
75.357	25.62	38.42	0.06	7.65
75.387	25.62	38.42	0.06	7.65
75.416	25.67	38.47	0.06	7.65
75.446	25.67	38.47	-0.04	7.54
75.476	25.67	38.47	-0.04	7.54
75.506	25.54	38.34	-0.04	7.54
75.535	25.54	38.34	0.03	7.62
75.565	25.54	38.34	0.03	7.62
75.595	25.64	38.44	0.03	7.62
75.625	25.64	38.44	0.03	7.61
75.655	25.64	38.44	0.03	7.61
75.684	25.62	38.42	0.03	7.61
75.714	25.62	38.42	-0.05	7.53
75.744	25.62	38.42	-0.05	7.53
75.774	25.68	38.48	-0.05	7.53
75.803	25.68	38.48	0.06	7.65
75.833	25.68	38.48	0.06	7.65
75.863	25.60	38.40	0.06	7.65
75.893	25.60	38.40	-0.04	7.55
75.922	25.60	38.40	-0.04	7.55
75.952	25.60	38.40	-0.04	7.55
75.982	25.60	38.40	0.03	7.61
76.012	25.60	38.40	0.03	7.61
76.041	25.54	38.34	0.03	7.61
76.071	25.54	38.34	0.04	7.63
76.101	25.54	38.34	0.04	7.63
76.131	25.57	38.37	0.04	7.63
76.160	25.57	38.37	-0.05	7.53
76.190	25.57	38.37	-0.05	7.53
76.220	25.60	38.40	-0.05	7.53
76.250	25.60	38.40	0.06	7.65
76.280	25.60	38.40	0.06	7.65
76.309	25.55	38.35	0.06	7.65
76.339	25.55	38.35	-0.03	7.55
76.369	25.55	38.35	-0.03	7.55
76.399	25.48	38.28	-0.03	7.55
76.428	25.48	38.28	0.02	7.60
76.458	25.48	38.28	0.02	7.60
76.488	25.59	38.39	0.02	7.60
76.518	25.59	38.39	0.05	7.64
76.547	25.59	38.39	0.05	7.64
76.577	25.54	38.34	0.05	7.64
76.607	25.54	38.34	-0.05	7.53
76.637	25.54	38.34	-0.05	7.53
76.666	25.51	38.31	-0.05	7.53
76.696	25.51	38.31	0.06	7.65
76.726	25.51	38.31	0.06	7.65
76.756	25.58	38.38	0.06	7.65
76.785	25.58	38.38	-0.03	7.56
76.815	25.58	38.38	-0.03	7.56
76.845	25.52	38.32	-0.03	7.56
76.875	25.52	38.32	0.01	7.59
76.904	25.52	38.32	0.01	7.59
76.934	25.59	38.39	0.01	7.59
76.964	25.59	38.39	0.06	7.64
76.994	25.59	38.39	0.06	7.64
77.024	25.54	38.34	0.06	7.64
77.053	25.54	38.34	-0.05	7.53
77.083	25.54	38.34	-0.05	7.53
77.113	25.48	38.28	-0.05	7.53
77.143	25.48	38.28	0.05	7.64
77.172	25.48	38.28	0.05	7.64
77.202	25.51	38.32	0.05	7.64
77.232	25.51	38.32	-0.03	7.56
77.262	25.51	38.32	-0.03	7.56
77.291	25.51	38.31	-0.03	7.56
77.321	25.51	38.31	-0.00	7.58
77.351	25.51	38.31	-0.00	7.58
77.381	25.46	38.27	-0.00	7.58
77.410	25.46	38.27	0.06	7.65
77.440	25.46	38.27	0.06	7.65
77.470	25.44	38.24	0.06	7.65
77.500	25.44	38.24	-0.05	7.53
77.529	25.44	38.24	-0.05	7.53
77.559	25.42	38.22	-0.05	7.53
77.589	25.42	38.22	0.05	7.64
77.619	25.42	38.22	0.05	7.64
77.648	25.52	38.32	0.05	7.64
77.678	25.52	38.32	-0.02	7.57
77.708	25.52	38.32	-0.02	7.57
77.738	25.58	38.38	-0.02	7.57
77.768	25.58	38.38	-0.02	7.57
77.797	25.58	38.38	-0.02	7.57
77.827	25.43	38.23	-0.02	7.57
77.857	25.43	38.23	0.06	7.65
77.887	25.43	38.23	0.06	7.65
77.916	25.50	38.30	0.06	7.65
77.946	25.50	38.30	-0.06	7.53
77.976	25.50	38.30	-0.06	7.53
78.006	25.49	38.29	-0.06	7.53
78.035	25.49	38.29	0.05	7.64
78.065	25.49	38.29	0.05	7.64
78.095	25.56	38.36	0.05	7.64
78.125	25.56	38.36	-0.01	7.57
78.154	25.56	38.36	-0.01	7.57
78.184	25.48	38.28	-0.01	7.57
78.214	25.48	38.28	-0.02	7.56
78.244	25.48	38.28	-0.02	7.56
78.273	25.53	38.33	-0.02	7.56
78.303	25.53	38.33	0.06	7.65
78.333	25.53	38.33	0.06	7.65
78.363	25.37	38.17	0.06	7.65
78.392	25.37	38.17	-0.05	7.53
78.422	25.37	38.17	-0.05	7.53
78.452	25.52	38.32	-0.05	7.53
78.482	25.52	38.32	0.04	7.63
78.512	25.52	38.32	0.04	7.63
78.541	25.49	38.29	0.04	7.63
78.571	25.49	38.29	-0.01	7.58
78.601	25.49	38.29	-0.01	7.58
78.631	25.58	38.38	-0.01	7.58
78.660	25.58	38.38	-0.04	7.55
78.690	25.58	38.38	-0.04	7.55
78.720	25.49	38.29	-0.04	7.55
78.750	25.49	38.29	0.06	7.65
78.779	25.49	38.29	0.06	7.65
78.809	25.52	38.32	0.06	7.65
78.839	25.52	38.32	-0.05	7.53
78.869	25.52	38.32	-0.05	7.53
78.898	25.44	38.24	-0.05	7.53
78.928	25.44	38.24	0.04	7.63
78.958	25.44	38.24	0.04	7.63
78.988	25.57	38.37	0.04	7.63
79.017	25.57	38.37	0.00	7.59
79.047	25.57	38.37	0.00	7.59
79.077	25.60	38.40	0.00	7.59
79.107	25.60	38.40	-0.05	7.54
79.136	25.60	38.40	-0.05	7.54
79.166	25.49	38.29	-0.05	7.54
79.196	25.49	38.29	0.06	7.65
79.226	25.49	38.29	0.06	7.65
79.255	25.45	38.25	0.06	7.65
79.285	25.45	38.25	-0.05	7.54
79.315	25.45	38.25	-0.05	7.54
79.345	25.46	38.26	-0.05	7.54
79.374	25.46	38.26	0.04	7.62
79.404	25.46	38.26	0.04	7.62
79.434	25.54	38.34	0.04	7.62
79.464	25.54	38.34	0.01	7.60
79.494	25.54	38.34	0.01	7.60
79.523	25.65	38.45	0.01	7.60
79.553	25.65	38.45	-0.05	7.53
79.583	25.65	38.45	-0.05	7.53
79.613	25.63	38.43	-0.05	7.53
79.642	25.63	38.43	0.06	7.65
79.672	25.63	38.43	0.06	7.65
79.702	25.54	38.34	0.06	7.65
79.732	25.54	38.34	-0.04	7.55
79.761	25.54	38.34	-0.04	7.55
79.791	25.47	38.27	-0.04	7.55
79.821	25.47	38.27	0.03	7.62
79.851	25.47	38.27	0.03	7.62
79.880	25.42	38.22	0.03	7.62
79.910	25.42	38.22	0.03	7.61
79.940	25.42	38.22	0.03	7.61
79.970	25.60	38.40	0.03	7.61
79.999	25.60	38.40	-0.05	7.53
80.029	25.60	38.40	-0.05	7.53
80.059	25.53	38.33	-0.05	7.53
80.089	25.53	38.33	0.07	7.65
80.118	25.53	38.33	0.07	7.65
80.148	25.52	38.32	0.07	7.65
80.178	25.52	38.32	-0.04	7.55
80.208	25.52	38.32	-0.04	7.55
80.238	25.64	38.44	-0.04	7.55
80.267	25.64	38.44	0.03	7.61
80.297	25.64	38.44	0.03	7.61
80.327	25.62	38.42	0.03	7.61
80.357	25.62	38.42	0.04	7.62
80.386	25.62	38.42	0.04	7.62
80.416	25.68	38.48	0.04	7.62
80.446	25.68	38.48	-0.05	7.53
80.476	25.68	38.48	-0.05	7.53
80.505	25.62	38.42	-0.05	7.53
80.535	25.62	38.42	0.07	7.65
80.565	25.62	38.42	0.07	7.65
80.595	25.65	38.45	0.07	7.65
80.624	25.65	38.45	-0.03	7.55
80.654	25.65	38.45	-0.03	7.55
80.684	25.68	38.48	-0.03	7.55
80.714	25.68	38.48	0.02	7.60
80.743	25.68	38.48	0.02	7.60
80.773	25.64	38.44	0.02	7.60
80.803	25.64	38.44	0.05	7.63
80.833	25.64	38.44	0.05	7.63
80.862	25.91	38.71	0.05	7.63
80.892	25.91	38.71	-0.05	7.53
80.922	25.91	38.71	-0.05	7.53
80.952	26.13	38.93	-0.05	7.53
80.982	26.13	38.93	0.07	7.65
81.011	26.13	38.93	0.07	7.65
81.041	25.98	38.78	0.07	7.65
81.071	25.98	38.78	-0.03	7.55
81.101	25.98	38.78	-0.03	7.55
81.130	25.94	38.74	-0.03	7.55
81.160	25.94	38.74	0.01	7.59
81.190	25.94	38.74	0.01	7.59
81.220	26.11	38.91	0.01	7.59
81.249	26.11	38.91	0.06	7.65
81.279	26.11	38.91	0.06	7.65
81.309	26.26	39.06	0.06	7.65
81.339	26.26	39.06	-0.05	7.53
81.368	26.26	39.06	-0.05	7.53
81.398	25.75	38.55	-0.05	7.53
81.428	25.75	38.55	0.06	7.64
81.458	25.75	38.55	0.06	7.64
81.487	25.68	38.48	0.06	7.64
81.517	25.68	38.48	-0.03	7.56
81.547	25.68	38.48	-0.03	7.56
81.577	25.69	38.49	-0.03	7.56
81.607	25.69	38.49	0.00	7.59
81.636	25.69	38.49	0.00	7.59
81.666	25.78	38.58	0.00	7.59
81.696	25.78	38.58	0.06	7.65
81.726	25.78	38.58	0.06	7.65
81.755	25.83	38.63	0.06	7.65
81.785	25.83	38.63	-0.05	7.53
81.815	25.83	38.63	-0.05	7.53
81.845	26.06	38.86	-0.05	7.53
81.874	26.06	38.86	0.05	7.64
81.904	26.06	38.86	0.05	7.64
81.934	25.79	38.59	0.05	7.64
81.964	25.79	38.59	-0.02	7.56
81.993	25.79	38.59	-0.02	7.56
82.023	25.66	38.46	-0.02	7.56
82.053	25.66	38.46	-0.01	7.57
82.083	25.66	38.46	-0.01	7.57
82.112	25.70	38.50	-0.01	7.57
82.142	25.70	38.50	0.06	7.65
82.172	25.70	38.50	0.06	7.65
82.202	25.76	38.57	0.06	7.65
82.231	25.76	38.57	-0.06	7.53
82.261	25.76	38.57	-0.06	7.53
82.291	25.96	38.76	-0.06	7.53
82.321	25.96	38.76	0.05	7.63
82.350	25.96	38.76	0.05	7.63
82.380	25.93	38.73	0.05	7.63
82.410	25.93	38.73	-0.02	7.57
82.440	25.93	38.73	-0.02	7.57
82.470	25.62	38.42	-0.02	7.57
82.499	25.62	38.42	-0.02	7.56
82.529	25.62	38.42	-0.02	7.56
82.559	25.45	38.25	-0.02	7.56
82.589	25.45	38.25	0.07	7.65
82.618	25.45	38.25	0.07	7.65
82.648	26.10	38.90	0.07	7.65
82.678	26.10	38.90	-0.05	7.53
82.708	26.10	38.90	-0.05	7.53
82.737	25.66	38.46	-0.05	7.53
82.767	25.66	38.46	0.04	7.63
82.797	25.66	38.46	0.04	7.63
82.827	25.61	38.42	0.04	7.63
82.856	25.61	38.42	-0.01	7.58
82.886	25.61	38.42	-0.01	7.58
82.916	25.50	38.30	-0.01	7.58
82.946	25.50	38.30	-0.04	7.55
82.975	25.50	38.30	-0.04	7.55
83.005	25.50	38.30	-0.04	7.55
83.035	25.50	38.30	0.07	7.65
83.065	25.50	38.30	0.07	7.65
83.095	25.56	38.36	0.07	7.65
83.124	25.56	38.36	-0.05	7.53
83.154	25.56	38.36	-0.05	7.53
83.184	25.98	38.78	-0.05	7.53
83.214	25.98	38.78	0.04	7.63
83.243	25.98	38.78	0.04	7.63
83.273	26.07	38.88	0.04	7.63
83.303	26.07	38.88	-0.00	7.58
83.333	26.07	38.88	-0.00	7.58
83.362	25.57	38.38	-0.00	7.58
83.392	25.57	38.38	-0.04	7.54
83.422	25.57	38.38	-0.04	7.54
83.452	26.45	39.25	-0.04	7.54
83.481	26.45	39.25	0.07	7.65
83.511	26.45	39.25	0.07	7.65
83.541	25.93	38.73	0.07	7.65
83.571	25.93	38.73	-0.05	7.54
83.600	25.93	38.73	-0.05	7.54
83.630	25.40	38.20	-0.05	7.54
83.660	25.40	38.20	0.04	7.63
83.690	25.40	38.20	0.04	7.63
83.719	25.52	38.32	0.04	7.63
83.749	25.52	38.32	0.01	7.59
83.779	25.52	38.32	0.01	7.59
83.809	25.47	38.27	0.01	7.59
83.839	25.47	38.27	-0.05	7.54
83.868	25.47	38.27	-0.05	7.54
83.898	25.40	38.20	-0.05	7.54
83.928	25.40	38.20	0.07	7.65
83.958	25.40	38.20	0.07	7.65
83.987	25.31	38.11	0.07	7.65
84.017	25.31	38.11	-0.04	7.54
84.047	25.31	38.11	-0.04	7.54
84.077	25.72	38.52	-0.04	7.54
84.106	25.72	38.52	0.04	7.62
84.136	25.72	38.52	0.04	7.62
84.166	26.26	39.06	0.04	7.62
84.196	26.26	39.06	0.02	7.60
84.225	26.26	39.06	0.02	7.60
84.255	25.57	38.37	0.02	7.60
84.285	25.57	38.37	-0.05	7.53
84.315	25.57	38.37	-0.05	7.53
84.344	25.51	38.32	-0.05	7.53
84.374	25.51	38.32	0.07	7.65
84.404	25.51	38.32	0.07	7.65
84.434	25.47	38.27	0.07	7.65
84.464	25.47	38.27	-0.04	7.54
84.493	25.47	38.27	-0.04	7.54
84.523	25.35	38.15	-0.04	7.54
84.553	25.35	38.15	0.03	7.62
84.583	25.35	38.15	0.03	7.62
84.612	25.53	38.33	0.03	7.62
84.642	25.53	38.33	0.03	7.62
84.672	25.53	38.33	0.03	7.62
84.702	25.53	38.33	0.03	7.62
84.731	25.53	38.33	-0.05	7.53
84.761	25.53	38.33	-0.05	7.53
84.791	25.39	38.19	-0.05	7.53
84.821	25.39	38.19	0.07	7.65
84.850	25.39	38.19	0.07	7.65
84.880	25.39	38.19	0.07	7.65
84.910	25.39	38.19	-0.03	7.55
84.940	25.39	38.19	-0.03	7.55
84.969	25.44	38.24	-0.03	7.55
84.999	25.44	38.24	0.03	7.61
85.029	25.44	38.24	0.03	7.61
85.059	25.43	38.23	0.03	7.61
85.089	25.43	38.23	0.04	7.63
85.118	25.43	38.23	0.04	7.63
85.148	25.49	38.29	0.04	7.63
85.178	25.49	38.29	-0.06	7.53
85.208	25.49	38.29	-0.06	7.53
85.237	25.53	38.33	-0.06	7.53
85.267	25.53	38.33	0.06	7.65
85.297	25.53	38.33	0.06	7.65
85.327	25.46	38.26	0.06	7.65
85.356	25.46	38.26	-0.03	7.55
85.386	25.46	38.26	-0.03	7.55
85.416	5.60	18.40	-0.03	7.55
85.446	5.60	18.40	0.01	7.59
85.475	5.60	18.40	0.01	7.59
85.505	-11.55	1.25	0.01	7.59
85.535	-11.55	1.25	0.04	7.62
85.565	-11.55	1.25	0.04	7.62
85.594	-3.12	9.68	0.04	7.62
85.624	-3.12	9.68	-0.05	7.53
85.654	-3.12	9.68	-0.05	7.53
85.684	10.30	23.10	-0.05	7.53
85.714	10.30	23.10	0.06	7.64
85.743	10.30	23.10	0.06	7.64
85.773	1.84	14.64	0.06	7.64
85.803	1.84	14.64	-0.03	7.55
85.833	1.84	14.64	-0.03	7.55
85.862	-4.61	8.19	-0.03	7.55
85.892	-4.61	8.19	0.01	7.59
85.922	-4.61	8.19	0.01	7.59
85.952	0.69	13.49	0.01	7.59
85.982	0.69	13.49	0.06	7.64
86.011	0.69	13.49	0.06	7.64
86.041	3.73	16.53	0.06	7.64
86.071	3.73	16.53	-0.05	7.53
86.101	3.73	16.53	-0.05	7.53
86.130	0.71	13.51	-0.05	7.53
86.160	0.71	13.51	0.05	7.64
86.190	0.71	13.51	0.05	7.64
86.220	-1.03	11.78	0.05	7.64
86.249	-1.03	11.78	-0.03	7.56
86.279	-1.03	11.78	-0.03	7.56
86.309	0.91	13.71	-0.03	7.56
86.339	0.91	13.71	-0.01	7.58
86.369	0.91	13.71	-0.01	7.58
86.398	1.78	14.58	-0.01	7.58
86.428	1.78	14.58	0.06	7.64
86.458	1.78	14.58	0.06	7.64
86.488	0.56	13.36	0.06	7.64
86.517	0.56	13.36	-0.06	7.53
86.547	0.56	13.36	-0.06	7.53
86.577	0.20	13.00	-0.06	7.53
86.607	0.20	13.00	0.05	7.63
86.636	0.20	13.00	0.05	7.63
86.666	0.88	13.68	0.05	7.63
86.696	0.88	13.68	-0.03	7.56
86.726	0.88	13.68	-0.03	7.56
86.756	1.03	13.83	-0.03	7.56
86.785	1.03	13.83	-0.02	7.57
86.815	1.03	13.83	-0.02	7.57
86.845	0.62	13.42	-0.02	7.57
86.875	0.62	13.42	0.06	7.65
86.904	0.62	13.42	0.06	7.65
86.934	0.60	13.40	0.06	7.65
86.964	0.60	13.40	-0.06	7.53
86.994	0.60	13.40	-0.06	7.53
87.023	0.80	13.60	-0.06	7.53
87.053	0.80	13.60	0.04	7.63
87.083	0.80	13.60	0.04	7.63
87.113	0.79	13.59	0.04	7.63
87.143	0.79	13.59	-0.02	7.57
87.172	0.79	13.59	-0.02	7.57
87.202	0.66	13.47	-0.02	7.57
87.232	0.66	13.47	-0.03	7.56
87.262	0.66	13.47	-0.03	7.56
87.291	0.70	13.50	-0.03	7.56
87.321	0.70	13.50	0.06	7.64
87.351	0.70	13.50	0.06	7.64
87.381	0.76	13.57	0.06	7.64
87.411	0.76	13.57	-0.06	7.53
87.440	0.76	13.57	-0.06	7.53
87.470	0.74	13.54	-0.06	7.53
87.500	0.74	13.54	0.04	7.63
87.530	0.74	13.54	0.04	7.63
87.559	0.71	13.51	0.04	7.63
87.589	0.71	13.51	-0.01	7.58
87.619	0.71	13.51	-0.01	7.58
87.649	0.73	13.53	-0.01	7.58
87.678	0.73	13.53	-0.04	7.55
87.708	0.73	13.53	-0.04	7.55
87.738	0.74	13.54	-0.04	7.55
87.768	0.74	13.54	0.06	7.65
87.798	0.74	13.54	0.06	7.65
87.827	0.72	13.52	0.06	7.65
87.857	0.72	13.52	-0.06	7.53
87.887	0.72	13.52	-0.06	7.53
87.917	0.71	13.51	-0.06	7.53
87.946	0.71	13.51	0.04	7.63
87.976	0.71	13.51	0.04	7.63
88.006	0.72	13.52	0.04	7.63
88.036	0.72	13.52	0.00	7.59
88.065	0.72	13.52	0.00	7.59
88.095	0.71	13.51	0.00	7.59
88.125	0.71	13.51	-0.05	7.53
88.155	0.71	13.51	-0.05	7.53
88.185	0.71	13.51	-0.05	7.53
88.214	0.71	13.51	0.06	7.65
88.244	0.71	13.51	0.06	7.65
88.274	0.70	13.50	0.06	7.65
88.304	0.70	13.50	-0.04	7.54
88.333	0.70	13.50	-0.04	7.54
88.363	0.71	13.51	-0.04	7.54
88.393	0.71	13.51	0.03	7.62
88.423	0.71	13.51	0.03	7.62
88.452	0.71	13.51	0.03	7.62
88.482	0.71	13.51	0.01	7.59
88.512	0.71	13.51	0.01	7.59
88.542	0.70	13.50	0.01	7.59
88.572	0.70	13.50	-0.06	7.53
88.601	0.70	13.50	-0.06	7.53
88.631	0.69	13.49	-0.06	7.53
88.661	0.69	13.49	0.06	7.65
88.691	0.69	13.49	0.06	7.65
88.720	0.68	13.48	0.06	7.65
88.750	0.68	13.48	-0.04	7.54
88.780	0.68	13.48	-0.04	7.54
88.810	0.67	13.47	-0.04	7.54
88.840	0.67	13.47	0.03	7.62
88.869	0.67	13.47	0.03	7.62
88.899	0.67	13.47	0.03	7.62
88.929	0.67	13.47	0.02	7.61
88.959	0.67	13.47	0.02	7.61
88.988	0.67	13.47	0.02	7.61
89.018	0.67	13.47	-0.06	7.53
89.048	0.67	13.47	-0.06	7.53
89.078	0.66	13.47	-0.06	7.53
89.107	0.66	13.47	0.07	7.66
89.137	0.66	13.47	0.07	7.66
89.167	0.67	13.47	0.07	7.66
89.197	0.67	13.47	-0.04	7.54
89.227	0.67	13.47	-0.04	7.54
89.256	0.67	13.47	-0.04	7.54
89.286	0.67	13.47	0.02	7.61
89.316	0.67	13.47	0.02	7.61
89.346	0.67	13.47	0.02	7.61
89.375	0.67	13.47	0.04	7.63
89.405	0.67	13.47	0.04	7.63
89.435	0.67	13.47	0.04	7.63
89.465	0.67	13.47	-0.07	7.52
89.494	0.67	13.47	-0.07	7.52
89.524	0.69	13.49	-0.07	7.52
89.554	0.69	13.49	0.07	7.65
89.584	0.69	13.49	0.07	7.65
89.614	0.84	13.64	0.07	7.65
